* Distortion data saved by REW V5.20.13
* Dated: Oct 16, 2023 7:16:35 AM
* Source: Universal Audio Thunderbolt, Universal Audio Thunderbolt, 1, volume: no control
* Format: 256k Log Swept Sine, 1 sweep at -40.0 dBFS with no timing reference
* Measurement: 312 （Pad -20）6格
* Frequency Step: 24 ppo
* Freq (Hz) Fundamental (dB) THD (%) Noise (%) H2 (%) H3 (%) H4 (%) H5 (%) H6 (%) H7 (%) H8 (%) H9 (%)
20.000 99.642 0.125 0.0026 0.0017 0.124 0.0018 0.0084 8.7E-4 0.0035 8.9E-4 0.0019
20.586 99.652 0.118 0.0028 0.0020 0.118 0.0018 0.0073 8.6E-4 0.0038 7.9E-4 0.0019
21.189 99.661 0.112 0.0028 0.0034 0.112 0.0017 0.0062 8.5E-4 0.0040 7.0E-4 0.0019
21.810 99.670 0.107 0.0028 0.0052 0.106 0.0013 0.0054 8.9E-4 0.0039 6.5E-4 0.0019
22.449 99.678 0.101 0.0028 0.0074 0.101 7.8E-4 0.0048 0.0010 0.0035 6.3E-4 0.0017
23.107 99.686 0.096 0.0021 0.011 0.095 6.5E-4 0.0043 0.0012 0.0031 6.1E-4 0.0015
23.784 99.694 0.092 0.0021 0.018 0.090 8.7E-4 0.0039 0.0012 0.0030 5.9E-4 0.0012
24.481 99.702 0.088 0.0021 0.025 0.084 0.0011 0.0038 0.0013 0.0029 6.7E-4 0.0011
25.198 99.709 0.084 0.0021 0.027 0.079 0.0012 0.0038 0.0012 0.0027 9.7E-4 1.0E-3
25.937 99.715 0.078 0.0024 0.023 0.074 0.0010 0.0039 0.0012 0.0026 0.0012 8.3E-4
26.697 99.722 0.072 0.0024 0.015 0.070 7.3E-4 0.0037 0.0011 0.0025 0.0014 6.5E-4
27.479 99.728 0.066 0.0024 0.0090 0.066 4.2E-4 0.0033 0.0010 0.0023 0.0015 5.2E-4
28.284 99.734 0.062 0.0021 0.0055 0.061 2.4E-4 0.0031 8.9E-4 0.0025 0.0015 6.7E-4
29.113 99.740 0.058 0.0021 0.0034 0.058 2.5E-4 0.0033 6.1E-4 0.0027 0.0017 8.4E-4
29.966 99.745 0.054 0.0021 0.0026 0.054 2.8E-4 0.0041 3.2E-4 0.0024 0.0020 8.9E-4
30.844 99.751 0.051 0.0021 0.0028 0.051 3.1E-4 0.0046 3.1E-4 0.0020 0.0021 9.1E-4
31.748 99.756 0.048 0.0028 0.0032 0.048 5.5E-4 0.0045 6.7E-4 0.0019 0.0018 0.0010
32.678 99.761 0.045 0.0028 0.0037 0.044 9.2E-4 0.0040 0.0011 0.0020 0.0013 0.0012
33.636 99.765 0.042 0.0028 0.0041 0.041 0.0011 0.0035 0.0011 0.0022 9.6E-4 0.0012
34.621 99.770 0.040 0.0019 0.0045 0.039 8.0E-4 0.0030 9.6E-4 0.0027 8.4E-4 0.0012
35.636 99.774 0.038 0.0019 0.0047 0.038 0.0010 0.0029 7.0E-4 0.0033 8.7E-4 0.0013
36.680 99.778 0.036 0.0024 0.0046 0.036 0.0017 0.0031 8.5E-4 0.0035 9.4E-4 0.0014
37.755 99.782 0.035 0.0024 0.0043 0.034 0.0021 0.0035 0.0012 0.0032 8.9E-4 0.0014
38.861 99.786 0.033 0.0024 0.0042 0.032 0.0016 0.0041 0.0013 0.0029 8.4E-4 0.0013
40.000 99.789 0.031 0.0033 0.0042 0.031 0.0012 0.0045 0.0016 0.0025 9.7E-4 9.4E-4
41.172 99.793 0.030 0.0033 0.0042 0.029 0.0014 0.0047 0.0022 0.0021 0.0013 5.4E-4
42.379 99.796 0.028 0.0026 0.0037 0.027 0.0015 0.0046 0.0021 0.0015 0.0019 5.1E-4
43.620 99.799 0.025 0.0026 0.0027 0.025 0.0012 0.0047 0.0015 0.0014 0.0022 0.0011
44.898 99.802 0.024 0.0081 0.0020 0.023 9.3E-4 0.0045 9.4E-4 0.0019 0.0016 0.0014
46.214 99.805 0.023 0.0081 0.0017 0.022 7.4E-4 0.0041 7.9E-4 0.0021 8.6E-4 0.0013
47.568 99.809 0.021 0.042 0.0021 0.020 7.3E-4 0.0044 5.1E-4 0.0019 5.6E-4 0.0011
48.962 99.814 0.020 0.042 0.0034 0.019 0.0014 0.0044 4.1E-4 0.0025 5.0E-4 7.9E-4
50.397 99.816 0.020 0.047 0.0045 0.019 0.0016 0.0032 5.9E-4 0.0033 5.1E-4 4.7E-4
51.874 99.817 0.020 0.047 0.0040 0.019 0.0011 0.0028 5.4E-4 0.0032 6.5E-4 3.1E-4
53.394 99.818 0.019 0.012 0.0034 0.019 9.1E-4 0.0034 5.6E-4 0.0025 6.2E-4 3.8E-4
54.958 99.820 0.019 0.012 0.0032 0.018 8.1E-4 0.0040 9.2E-4 0.0017 5.5E-4 4.6E-4
56.569 99.822 0.018 0.0025 0.0034 0.017 7.9E-4 0.0043 0.0017 0.0014 8.1E-4 8.9E-4
58.226 99.824 0.018 0.0034 0.0038 0.017 8.2E-4 0.0040 0.0021 0.0012 5.9E-4 0.0015
59.932 99.826 0.017 0.0034 0.0038 0.016 0.0012 0.0042 0.0013 8.8E-4 3.2E-4 0.0018
61.688 99.828 0.016 0.0033 0.0040 0.015 0.0020 0.0045 7.5E-4 0.0010 1.6E-4 0.0016
63.496 99.829 0.016 0.0022 0.0038 0.015 0.0017 0.0044 8.6E-4 0.0013 3.3E-4 0.0011
65.357 99.831 0.016 0.0022 0.0033 0.015 5.7E-4 0.0041 8.9E-4 0.0015 6.6E-4 0.0011
67.272 99.833 0.016 0.0013 0.0027 0.015 5.5E-4 0.0048 7.5E-4 0.0020 0.0011 0.0010
69.243 99.834 0.016 0.0016 0.0022 0.014 8.1E-4 0.0064 6.4E-4 0.0018 0.0011 6.6E-4
71.272 99.836 0.015 0.0016 0.0020 0.014 7.9E-4 0.0058 6.4E-4 0.0017 7.6E-4 4.9E-4
73.360 99.837 0.014 0.0023 0.0021 0.013 0.0012 0.0043 7.4E-4 0.0020 5.5E-4 4.2E-4
75.510 99.839 0.014 0.0030 0.0028 0.013 0.0010 0.0037 4.6E-4 0.0017 5.3E-4 4.1E-4
77.723 99.840 0.014 0.0019 0.0019 0.014 7.5E-4 0.0030 8.4E-4 0.0018 7.0E-4 5.6E-4
80.000 99.842 0.013 0.0012 0.0020 0.013 7.4E-4 0.0026 7.3E-4 0.0016 0.0010 8.4E-4
82.344 99.843 0.012 0.0011 0.0018 0.011 9.0E-4 0.0028 5.7E-4 0.0018 0.0013 0.0011
84.757 99.844 0.013 0.0011 0.0012 0.012 0.0014 0.0034 3.4E-4 0.0015 0.0011 9.8E-4
87.241 99.846 0.013 0.0020 0.0014 0.012 0.0024 0.0033 3.6E-4 0.0014 8.2E-4 8.1E-4
89.797 99.847 0.013 0.0029 0.0015 0.012 9.1E-4 0.0034 0.0011 9.8E-4 6.8E-4 0.0010
92.428 99.848 0.013 0.0027 0.0018 0.013 7.7E-4 0.0032 0.0012 7.9E-4 7.5E-4 0.0013
95.137 99.850 0.013 0.0026 0.0016 0.012 6.1E-4 0.0032 4.7E-4 0.0011 8.6E-4 8.6E-4
97.924 99.851 0.013 0.0045 0.0017 0.012 2.8E-4 0.0035 4.9E-4 9.3E-4 8.9E-4 4.1E-4
100.794 99.852 0.012 0.0077 0.0028 0.011 4.2E-4 0.0030 5.6E-4 3.8E-4 0.0010 3.6E-4
103.747 99.854 0.012 0.0030 0.0017 0.011 7.8E-4 0.0028 6.0E-4 3.0E-4 6.2E-4 4.2E-4
106.787 99.855 0.012 0.0015 8.8E-4 0.012 9.1E-4 0.0024 9.1E-4 4.4E-4 4.5E-4 5.8E-4
109.916 99.856 0.012 0.0027 0.0014 0.012 0.0012 0.0017 8.3E-4 8.3E-4 6.0E-4 7.3E-4
113.137 99.858 0.011 0.0020 0.0025 0.011 9.6E-4 0.0012 0.0011 0.0015 0.0010 4.4E-4
116.452 99.859 0.013 0.0029 0.0027 0.012 0.0011 0.0014 0.0013 0.0016 1.0E-3 5.3E-4
119.865 99.860 0.013 0.0024 0.0021 0.012 0.0017 0.0019 0.0012 0.0018 0.0011 0.0010
123.377 99.861 0.012 0.0023 0.0028 0.011 0.0017 0.0018 0.0011 0.0012 8.8E-4 0.0011
126.992 99.863 0.012 0.0029 0.0020 0.011 0.0014 0.0019 0.0012 1.0E-3 4.7E-4 0.0011
130.713 99.864 0.011 0.0025 0.0013 0.010 0.0012 0.0012 0.0013 0.0011 4.8E-4 8.2E-4
134.543 99.865 0.010 0.0020 0.0012 0.0098 0.0018 0.0014 0.0010 0.0015 8.1E-4 7.3E-4
138.486 99.867 0.010 0.0026 0.0011 0.0095 0.0013 0.0016 0.0011 0.0015 8.3E-4 0.0012
142.544 99.868 0.0100 0.0026 9.2E-4 0.0094 0.0011 0.0018 0.0010 0.0013 0.0012 0.0011
146.721 99.869 0.010 0.0093 0.0017 0.0094 6.8E-4 0.0017 8.3E-4 0.0013 9.4E-4 0.0016
151.020 99.870 0.010 0.012 0.0019 0.0098 7.7E-4 0.0020 8.9E-4 0.0011 0.0012 0.0013
155.445 99.871 0.010 0.0020 0.0016 0.0094 1.0E-3 0.0017 7.1E-4 8.6E-4 0.0014 0.0014
160.000 99.873 0.0097 0.0024 0.0014 0.0091 0.0014 0.0018 6.2E-4 9.4E-4 0.0012 0.0014
164.688 99.874 0.0094 0.0024 0.0019 0.0087 0.0015 0.0016 6.9E-4 6.3E-4 0.0012 0.0015
169.514 99.875 0.0087 0.0039 0.0026 0.0079 0.0011 0.0016 8.7E-4 7.0E-4 7.7E-4 1.0E-3
174.481 99.877 0.0098 0.0031 0.0040 0.0085 0.0012 0.0016 0.0012 5.6E-4 0.0011 0.0012
179.594 99.878 0.010 0.0035 0.0017 0.0094 9.7E-4 0.0019 0.0011 7.0E-4 0.0012 0.0017
184.856 99.879 0.010 0.0028 0.0016 0.0098 8.9E-4 0.0020 8.4E-4 0.0012 0.0011 0.0011
190.273 99.881 0.0091 0.0026 0.0015 0.0084 0.0012 0.0021 8.2E-4 8.9E-4 0.0012 0.0014
195.849 99.882 0.0085 0.0043 0.0014 0.0077 0.0018 0.0019 4.0E-4 8.3E-4 0.0011 9.6E-4
201.587 99.884 0.0080 0.0046 0.0010 0.0073 9.0E-4 0.0019 4.7E-4 0.0012 0.0012 0.0012
207.494 99.885 0.0085 0.0022 0.0015 0.0076 5.3E-4 0.0023 0.0012 8.5E-4 0.0016 0.0014
213.574 99.886 0.0083 0.0018 0.0014 0.0069 8.3E-4 0.0031 0.0015 0.0012 0.0015 0.0017
219.833 99.887 0.0077 0.0026 1.0E-3 0.0070 0.0011 0.0018 7.9E-4 0.0010 0.0014 0.0015
226.274 99.888 0.0077 0.0023 0.0013 0.0069 0.0014 0.0014 9.6E-4 8.6E-4 0.0014 0.0017
232.905 99.889 0.0072 0.0031 0.0020 0.0060 0.0011 0.0022 8.7E-4 9.4E-4 0.0012 0.0014
239.729 99.891 0.0069 0.0013 0.0019 0.0056 0.0012 0.0024 0.0011 9.5E-4 0.0014 0.0013
246.754 99.892 0.0071 0.0100 0.0017 0.0060 0.0016 0.0018 8.6E-4 0.0015 0.0010 0.0011
253.984 99.893 0.0079 0.0068 0.0018 0.0068 0.0017 0.0015 0.0013 0.0016 7.2E-4 0.0018
261.426 99.894 0.0077 0.0050 0.0016 0.0069 0.0013 0.0011 0.0014 9.4E-4 0.0014 0.0015
269.087 99.894 0.0074 0.0045 0.0022 0.0059 0.0020 0.0016 0.0011 0.0015 0.0020 0.0012
276.972 99.895 0.0070 0.0029 0.0020 0.0055 0.0021 0.0018 0.0013 0.0011 0.0015 0.0016
285.088 99.896 0.0068 0.0033 0.0020 0.0054 0.0020 0.0013 0.0010 7.8E-4 0.0016 0.0016
293.441 99.897 0.0077 0.0025 0.0017 0.0068 0.0012 0.0013 0.0010 0.0010 0.0019 0.0013
302.040 99.898 0.0068 0.0031 0.0011 0.0060 0.0014 0.0012 9.4E-4 0.0011 0.0013 0.0013
310.890 99.899 0.0061 0.0025 0.0013 0.0048 0.0014 0.0018 0.0013 0.0011 0.0017 0.0014
320.000 99.900 0.0065 0.0030 0.0018 0.0048 0.0015 0.0021 0.0016 0.0014 0.0016 0.0014
329.377 99.901 0.0065 0.0026 0.0024 0.0044 0.0011 0.0026 0.0015 0.0012 0.0015 0.0019
339.028 99.903 0.0068 0.0038 0.0021 0.0045 0.0016 0.0019 0.0019 0.0019 0.0018 0.0023
348.962 99.904 0.0066 0.022 0.0019 0.0045 0.0018 0.0013 0.0017 0.0025 0.0021 0.0015
359.188 99.906 0.0072 0.0025 0.0020 0.0049 0.0016 0.0020 0.0016 0.0023 0.0023 0.0019
369.713 99.907 0.0068 0.0049 0.0021 0.0047 0.0014 0.0022 0.0019 0.0018 0.0019 0.0013
380.546 99.909 0.0066 0.0038 0.0021 0.0048 0.0016 0.0018 0.0019 0.0020 0.0012 0.0014
391.697 99.911 0.0073 0.0035 0.0014 0.0061 0.0015 0.0016 0.0012 0.0020 0.0012 0.0015
403.175 99.913 0.0077 0.0032 0.0017 0.0063 0.0017 0.0014 0.0020 0.0021 0.0013 0.0014
414.989 99.915 0.0063 0.0044 0.0017 0.0048 0.0017 0.0014 0.0014 0.0015 0.0014 0.0017
427.149 99.917 0.0060 0.0033 0.0018 0.0038 0.0015 0.0019 0.0014 0.0018 0.0017 0.0019
439.665 99.919 0.0059 0.0030 0.0015 0.0041 0.0018 0.0015 0.0014 0.0019 0.0015 0.0017
452.548 99.921 0.0063 0.0036 0.0021 0.0043 0.0017 0.0016 0.0013 0.0022 0.0016 0.0015
465.809 99.922 0.0065 0.0032 0.0015 0.0045 0.0019 0.0014 0.0022 0.0021 0.0019 0.0014
479.458 99.923 0.0055 0.0030 0.0014 0.0035 0.0024 0.0011 0.0016 0.0013 0.0019 0.0011
493.507 99.924 0.0066 0.0063 0.0018 0.0048 0.0025 0.0010 0.0020 0.0014 0.0015 0.0016
507.968 99.925 0.0070 0.0039 0.0025 0.0048 0.0020 0.0019 0.0018 0.0013 0.0019 0.0017
522.853 99.926 0.0069 0.0031 0.0028 0.0045 0.0016 0.0020 0.0012 0.0014 0.0023 0.0022
538.174 99.926 0.0072 0.0041 0.0030 0.0047 0.0019 0.0022 0.0016 0.0018 0.0020 0.0018
553.943 99.927 0.0073 0.0034 0.0024 0.0042 0.0017 0.0024 0.0027 0.0020 0.0017 0.0026
570.175 99.928 0.0074 0.0026 0.0025 0.0047 0.0016 0.0025 0.0022 0.0022 0.0013 0.0025
586.883 99.929 0.0067 0.0070 0.0021 0.0042 0.0022 0.0021 0.0022 0.0019 0.0016 0.0018
604.080 99.930 0.0068 0.0055 0.0027 0.0040 0.0020 0.0016 0.0024 0.0021 0.0020 0.0017
621.780 99.931 0.0068 0.0040 0.0024 0.0040 0.0015 0.0020 0.0026 0.0017 0.0025 0.0016
640.000 99.932 0.0075 0.0039 0.0023 0.0046 0.0022 0.0026 0.0021 0.0020 0.0022 0.0020
658.753 99.933 0.0070 0.0045 0.0030 0.0036 0.0020 0.0023 0.0021 0.0025 0.0019 0.0019
678.056 99.933 0.0067 0.0059 0.0027 0.0034 0.0018 0.0019 0.0020 0.0025 0.0024 0.0019
697.925 99.933 0.0072 0.0053 0.0025 0.0037 0.0020 0.0022 0.0018 0.0028 0.0029 0.0021
718.376 99.933 0.0070 0.0062 0.0024 0.0042 0.0019 0.0021 0.0018 0.0022 0.0023 0.0022
739.426 99.933 0.0068 0.0032 0.0027 0.0035 0.0022 0.0017 0.0019 0.0019 0.0022 0.0026
761.093 99.933 0.0073 0.0056 0.0035 0.0031 0.0022 0.0023 0.0024 0.0021 0.0021 0.0027
783.394 99.933 0.0074 0.0049 0.0031 0.0031 0.0020 0.0022 0.0028 0.0027 0.0020 0.0026
806.349 99.934 0.0076 0.0045 0.0031 0.0038 0.0020 0.0022 0.0027 0.0022 0.0022 0.0026
829.977 99.936 0.0074 0.0037 0.0031 0.0035 0.0024 0.0026 0.0021 0.0027 0.0021 0.0023
854.297 99.939 0.0073 0.0039 0.0031 0.0033 0.0025 0.0026 0.0021 0.0024 0.0021 0.0021
879.330 99.942 0.0077 0.0081 0.0028 0.0031 0.0029 0.0021 0.0021 0.0027 0.0025 0.0032
905.097 99.944 0.0072 0.0041 0.0025 0.0030 0.0025 0.0020 0.0023 0.0029 0.0017 0.0031
931.618 99.946 0.0079 0.0044 0.0032 0.0036 0.0025 0.0022 0.0028 0.0030 0.0019 0.0027
958.917 99.947 0.0079 0.0067 0.0027 0.0038 0.0024 0.0027 0.0031 0.0026 0.0023 0.0023
987.015 99.947 0.0077 0.0045 0.0025 0.0033 0.0025 0.0028 0.0028 0.0026 0.0027 0.0022
1015.937 99.947 0.0081 0.0059 0.0025 0.0036 0.0029 0.0026 0.0031 0.0028 0.0025 0.0027
1045.706 99.948 0.0082 0.0068 0.0030 0.0035 0.0029 0.0024 0.0028 0.0027 0.0022 0.0035
1076.347 99.949 0.0084 0.0071 0.0029 0.0035 0.0026 0.0028 0.0030 0.0028 0.0027 0.0034
1107.887 99.949 0.0092 0.0049 0.0029 0.0036 0.0037 0.0029 0.0035 0.0023 0.0030 0.0038
1140.350 99.948 0.0088 0.0061 0.0025 0.0040 0.0033 0.0021 0.0034 0.0026 0.0033 0.0032
1173.765 99.946 0.0088 0.0051 0.0031 0.0043 0.0029 0.0022 0.0030 0.0027 0.0034 0.0030
1208.159 99.945 0.0084 0.0065 0.0036 0.0034 0.0024 0.0033 0.0028 0.0024 0.0033 0.0024
1243.561 99.945 0.0091 0.0064 0.0035 0.0040 0.0025 0.0033 0.0023 0.0032 0.0041 0.0023
1280.000 99.948 0.0093 0.0061 0.0032 0.0033 0.0031 0.0035 0.0032 0.0035 0.0039 0.0026
1317.507 99.952 0.0096 0.0053 0.0033 0.0038 0.0033 0.0035 0.0032 0.0035 0.0036 0.0027
1356.113 99.956 0.0095 0.0073 0.0036 0.0043 0.0024 0.0032 0.0035 0.0035 0.0033 0.0025
1395.850 99.958 0.0096 0.0061 0.0042 0.0042 0.0026 0.0033 0.0037 0.0034 0.0028 0.0026
1436.751 99.959 0.010 0.0044 0.0040 0.0042 0.0032 0.0033 0.0039 0.0038 0.0031 0.0028
1478.851 99.959 0.0098 0.0062 0.0037 0.0040 0.0036 0.0032 0.0035 0.0035 0.0031 0.0028
1522.185 99.959 0.0095 0.0071 0.0035 0.0037 0.0032 0.0029 0.0030 0.0037 0.0039 0.0031
1566.789 99.958 0.0097 0.0067 0.0037 0.0038 0.0033 0.0034 0.0029 0.0032 0.0038 0.0032
1612.699 99.955 0.0096 0.0069 0.0042 0.0038 0.0029 0.0030 0.0036 0.0029 0.0034 0.0032
1659.955 99.952 0.0099 0.0055 0.0038 0.0042 0.0027 0.0032 0.0044 0.0030 0.0025 0.0035
1708.595 99.952 0.0100 0.0066 0.0037 0.0042 0.0029 0.0033 0.0035 0.0037 0.0032 0.0034
1758.661 99.956 0.0095 0.0063 0.0039 0.0041 0.0029 0.0032 0.0035 0.0033 0.0032 0.0025
1810.193 99.961 0.010 0.0055 0.0040 0.0040 0.0037 0.0036 0.0032 0.0031 0.0036 0.0034
1863.236 99.963 0.010 0.0058 0.0044 0.0041 0.0038 0.0033 0.0033 0.0030 0.0039 0.0031
1917.833 99.963 0.010 0.0059 0.0045 0.0042 0.0033 0.0036 0.0040 0.0029 0.0032 0.0030
1974.030 99.961 0.010 0.0082 0.0043 0.0043 0.0032 0.0044 0.0033 0.0030 0.0028 0.0027
2031.873 99.957 0.011 0.0056 0.0045 0.0039 0.0043 0.0043 0.0044 0.0037 0.0034 0.0025
2091.412 99.951 0.011 0.0062 0.0045 0.0039 0.0047 0.0032 0.0041 0.0036 0.0034 0.0023
2152.695 99.947 0.011 0.0083 0.0047 0.0045 0.0035 0.0043 0.0037 0.0032 0.0032 0.0020
2215.774 99.950 0.010 0.0080 0.0049 0.0043 0.0040 0.0044 0.0033 0.0033 0.0028 0.0016
2280.701 99.955 0.010 0.0094 0.0048 0.0042 0.0034 0.0041 0.0036 0.0033 0.0029 0.0012
