* Distortion data saved by REW V5.20.13
* Dated: Oct 16, 2023 7:16:59 AM
* Source: Universal Audio Thunderbolt, Universal Audio Thunderbolt, 1, volume: no control
* Format: 256k Log Swept Sine, 1 sweep at -40.0 dBFS with no timing reference
* Measurement: 312 （Pad -20）7格
* Frequency Step: 24 ppo
* Freq (Hz) Fundamental (dB) THD (%) Noise (%) H2 (%) H3 (%) H4 (%) H5 (%) H6 (%) H7 (%) H8 (%) H9 (%)
20.000 104.680 0.128 0.0027 0.0090 0.128 2.7E-4 0.0093 6.4E-4 8.0E-4 6.6E-4 0.0015
20.586 104.689 0.121 0.0017 0.0094 0.120 3.9E-4 0.0084 5.5E-4 0.0010 5.2E-4 0.0012
21.189 104.699 0.114 0.0017 0.0099 0.113 8.5E-4 0.0075 5.1E-4 0.0015 4.0E-4 9.0E-4
21.810 104.708 0.107 0.0017 0.011 0.106 0.0015 0.0067 5.8E-4 0.0019 4.0E-4 6.3E-4
22.449 104.716 0.101 0.0017 0.014 0.100 0.0019 0.0059 8.8E-4 0.0018 5.4E-4 4.2E-4
23.107 104.725 0.096 0.0017 0.018 0.094 0.0022 0.0052 0.0014 0.0017 6.6E-4 3.9E-4
23.784 104.733 0.093 0.0017 0.027 0.089 0.0024 0.0047 0.0018 0.0018 7.0E-4 4.8E-4
24.481 104.740 0.091 0.0017 0.033 0.084 0.0022 0.0043 0.0020 0.0019 7.5E-4 5.0E-4
25.198 104.747 0.086 0.0017 0.033 0.079 0.0018 0.0041 0.0021 0.0020 8.3E-4 4.0E-4
25.937 104.754 0.079 0.0019 0.025 0.075 0.0011 0.0040 0.0018 0.0021 8.7E-4 1.6E-4
26.697 104.761 0.072 0.0019 0.015 0.071 5.9E-4 0.0038 0.0014 0.0021 8.4E-4 1.8E-4
27.479 104.767 0.068 0.0019 0.011 0.067 7.2E-4 0.0035 0.0010 0.0021 7.8E-4 6.2E-4
28.284 104.773 0.064 0.0025 0.0099 0.063 0.0013 0.0030 7.3E-4 0.0021 7.4E-4 9.8E-4
29.113 104.779 0.060 0.0025 0.0089 0.059 0.0017 0.0024 6.2E-4 0.0021 8.7E-4 0.0011
29.966 104.784 0.056 0.0025 0.0082 0.055 0.0018 0.0015 6.4E-4 0.0020 0.0012 9.9E-4
30.844 104.790 0.053 0.0024 0.0076 0.052 0.0015 9.9E-4 5.9E-4 0.0019 0.0019 9.6E-4
31.748 104.795 0.049 0.0021 0.0074 0.048 0.0013 0.0011 4.6E-4 0.0018 0.0022 0.0010
32.678 104.800 0.045 0.0021 0.0074 0.044 8.9E-4 0.0017 4.7E-4 0.0017 0.0021 0.0010
33.636 104.804 0.043 0.0021 0.0073 0.042 5.5E-4 0.0021 7.2E-4 0.0016 0.0016 9.4E-4
34.621 104.809 0.041 0.0018 0.0071 0.040 8.2E-4 0.0021 8.2E-4 0.0018 0.0012 8.7E-4
35.636 104.813 0.039 0.0018 0.0065 0.038 0.0014 0.0022 6.9E-4 0.0022 0.0010 8.6E-4
36.680 104.817 0.036 0.0015 0.0056 0.036 0.0022 0.0022 4.8E-4 0.0022 9.0E-4 9.8E-4
37.755 104.821 0.034 0.0015 0.0046 0.033 0.0027 0.0020 3.7E-4 0.0019 7.8E-4 0.0012
38.861 104.825 0.032 0.0015 0.0041 0.031 0.0024 0.0017 6.6E-4 0.0015 8.5E-4 0.0013
40.000 104.828 0.030 0.0017 0.0037 0.029 0.0016 0.0014 0.0013 0.0013 0.0010 0.0011
41.172 104.832 0.028 0.0017 0.0033 0.027 0.0012 0.0018 0.0021 9.7E-4 0.0012 7.8E-4
42.379 104.835 0.026 0.0024 0.0031 0.026 0.0011 0.0024 0.0024 7.6E-4 0.0017 4.8E-4
43.620 104.838 0.025 0.0024 0.0032 0.024 8.7E-4 0.0027 0.0021 6.9E-4 0.0024 3.4E-4
44.898 104.841 0.023 0.0078 0.0031 0.023 7.4E-4 0.0029 0.0015 6.8E-4 0.0023 4.8E-4
46.214 104.844 0.022 0.0078 0.0030 0.021 9.1E-4 0.0031 0.0012 6.9E-4 0.0017 8.4E-4
47.568 104.845 0.021 0.042 0.0037 0.020 0.0011 0.0034 0.0011 8.9E-4 0.0013 0.0011
48.962 104.847 0.019 0.042 0.0050 0.017 0.0012 0.0040 0.0013 0.0019 0.0011 0.0010
50.397 104.850 0.017 0.047 0.0060 0.015 0.0011 0.0038 0.0016 0.0026 6.0E-4 8.7E-4
51.874 104.854 0.016 0.047 0.0055 0.014 0.0011 0.0027 0.0017 0.0020 5.9E-4 9.4E-4
53.394 104.856 0.016 0.014 0.0051 0.015 0.0011 0.0022 0.0018 0.0012 9.9E-4 0.0011
54.958 104.858 0.015 0.014 0.0045 0.014 8.9E-4 0.0018 0.0020 7.5E-4 0.0010 1.0E-3
56.569 104.860 0.014 0.0033 0.0038 0.013 7.1E-4 0.0017 0.0024 1.0E-3 0.0010 8.8E-4
58.226 104.863 0.014 0.0025 0.0025 0.013 6.3E-4 0.0020 0.0025 0.0014 8.8E-4 6.5E-4
59.932 104.864 0.013 0.0025 0.0017 0.013 5.5E-4 0.0023 0.0018 0.0012 6.5E-4 0.0012
61.688 104.866 0.013 0.0025 0.0019 0.012 0.0013 0.0022 0.0010 0.0013 5.4E-4 0.0017
63.496 104.868 0.012 0.0024 0.0022 0.011 0.0018 0.0022 5.6E-4 0.0015 3.4E-4 0.0015
65.357 104.870 0.012 0.0024 0.0025 0.011 0.0012 0.0029 3.7E-4 0.0017 3.6E-4 0.0014
67.272 104.872 0.011 0.0017 0.0027 0.0097 8.5E-4 0.0036 4.6E-4 0.0015 8.0E-4 0.0014
69.243 104.873 0.011 0.0033 0.0025 0.0094 3.3E-4 0.0044 6.9E-4 0.0013 0.0013 0.0016
71.272 104.874 0.011 0.0033 0.0030 0.0100 1.9E-4 0.0030 7.5E-4 0.0012 0.0014 0.0012
73.360 104.876 0.011 0.0035 0.0038 0.010 7.4E-4 0.0022 7.1E-4 0.0011 0.0010 7.1E-4
75.510 104.877 0.011 0.0019 0.0040 0.0094 0.0012 0.0022 8.7E-4 0.0010 9.8E-4 5.0E-4
77.723 104.879 0.0099 0.0011 0.0031 0.0089 0.0012 0.0020 5.9E-4 0.0017 8.9E-4 8.0E-4
80.000 104.880 0.0096 0.0026 0.0029 0.0086 0.0014 0.0019 4.5E-4 0.0018 0.0011 8.3E-4
82.344 104.881 0.0077 0.0020 0.0024 0.0067 0.0011 0.0019 3.7E-4 0.0013 0.0014 6.5E-4
84.757 104.883 0.0086 0.0020 0.0022 0.0079 0.0015 0.0011 6.9E-4 9.5E-4 0.0012 7.1E-4
87.241 104.884 0.0094 0.0018 0.0020 0.0087 0.0026 8.8E-4 5.8E-4 6.1E-4 5.4E-4 7.5E-4
89.797 104.885 0.0090 0.0023 0.0019 0.0084 0.0014 0.0011 7.4E-4 0.0011 7.9E-4 0.0011
92.428 104.886 0.0097 0.0020 0.0013 0.0091 6.1E-4 0.0014 6.9E-4 0.0020 0.0010 9.8E-4
95.137 104.888 0.010 0.0035 0.0017 0.0097 0.0013 9.1E-4 1.5E-4 0.0018 0.0013 0.0011
97.924 104.889 0.010 0.0043 0.0020 0.0096 0.0016 0.0011 3.4E-4 0.0011 0.0011 0.0013
100.794 104.890 0.0098 0.0082 0.0028 0.0090 0.0012 0.0012 6.5E-4 0.0015 6.9E-4 0.0013
103.747 104.891 0.0099 0.0014 0.0022 0.0092 0.0011 0.0014 9.6E-4 0.0017 7.1E-4 7.8E-4
106.787 104.893 0.010 0.0022 0.0023 0.0099 0.0010 0.0012 0.0012 0.0013 8.0E-4 7.5E-4
109.916 104.894 0.011 0.0020 0.0023 0.0100 0.0013 0.0022 0.0013 9.7E-4 7.8E-4 8.8E-4
113.137 104.895 0.0098 0.0022 0.0017 0.0091 0.0014 0.0017 0.0012 9.1E-4 0.0013 7.9E-4
116.452 104.896 0.010 0.0029 0.0011 0.010 0.0012 0.0013 0.0013 4.9E-4 0.0010 9.6E-4
119.865 104.897 0.0097 0.0030 0.0016 0.0092 0.0012 0.0015 0.0011 4.7E-4 7.7E-4 0.0014
123.377 104.899 0.0090 0.0023 0.0032 0.0079 0.0019 0.0015 7.6E-4 7.3E-4 0.0012 9.9E-4
126.992 104.900 0.0090 0.0029 0.0039 0.0075 0.0016 0.0015 9.9E-4 6.2E-4 0.0013 0.0014
130.713 104.901 0.0085 0.0022 0.0018 0.0076 0.0011 0.0021 0.0010 4.6E-4 0.0014 0.0019
134.543 104.902 0.0095 0.0031 0.0021 0.0086 0.0012 0.0021 0.0011 9.0E-4 0.0011 0.0014
138.486 104.903 0.0089 0.0027 0.0017 0.0081 0.0016 0.0020 8.1E-4 0.0015 5.9E-4 0.0011
142.544 104.905 0.0086 0.0024 0.0012 0.0081 7.7E-4 0.0013 0.0012 0.0014 7.8E-4 0.0012
146.721 104.906 0.0089 0.0099 0.0013 0.0084 0.0010 9.8E-4 0.0012 0.0010 8.9E-4 0.0014
151.020 104.907 0.0086 0.011 0.0015 0.0078 0.0016 0.0013 9.5E-4 0.0013 0.0011 0.0017
155.445 104.909 0.0076 0.0027 0.0013 0.0069 0.0012 0.0015 0.0010 0.0013 0.0011 0.0010
160.000 104.910 0.0070 0.0020 0.0011 0.0064 0.0014 9.0E-4 9.5E-4 8.0E-4 0.0013 8.0E-4
164.688 104.912 0.0065 0.0024 0.0016 0.0058 8.9E-4 8.9E-4 7.3E-4 9.1E-4 0.0011 0.0012
169.514 104.913 0.0065 0.0027 0.0018 0.0057 9.6E-4 0.0016 9.8E-4 8.0E-4 5.2E-4 9.6E-4
174.481 104.915 0.0068 0.0022 0.0038 0.0051 0.0011 0.0014 0.0010 0.0010 7.4E-4 8.9E-4
179.594 104.916 0.0054 0.0030 0.0019 0.0043 9.1E-4 0.0013 0.0013 9.2E-4 9.7E-4 0.0011
184.856 104.917 0.0062 0.0021 0.0017 0.0048 0.0013 0.0015 0.0011 0.0017 0.0017 0.0017
190.273 104.919 0.0067 0.0047 0.0017 0.0057 6.7E-4 0.0014 9.7E-4 0.0014 0.0016 9.4E-4
195.849 104.920 0.0063 0.0035 0.0016 0.0054 6.6E-4 0.0010 0.0013 0.0018 0.0014 6.8E-4
201.587 104.922 0.0070 0.0045 0.0017 0.0061 9.3E-4 0.0013 0.0012 0.0017 0.0012 7.0E-4
207.494 104.923 0.0067 0.0026 0.0019 0.0055 0.0010 0.0014 0.0013 0.0020 9.3E-4 0.0011
213.574 104.925 0.0061 0.0028 0.0015 0.0050 0.0013 0.0012 0.0014 0.0016 0.0011 0.0013
219.833 104.926 0.0067 0.0029 0.0017 0.0058 0.0014 0.0012 0.0012 0.0013 0.0011 0.0011
226.274 104.927 0.0060 0.0027 0.0024 0.0047 8.7E-4 0.0012 0.0010 0.0011 0.0016 0.0011
232.905 104.928 0.0066 0.0035 0.0025 0.0052 8.1E-4 0.0014 0.0013 0.0016 0.0015 0.0011
239.729 104.929 0.0067 0.0032 0.0026 0.0053 0.0013 0.0010 0.0015 0.0014 0.0016 0.0011
246.754 104.929 0.0067 0.0090 0.0023 0.0056 0.0010 0.0013 0.0013 9.2E-4 0.0011 0.0015
253.984 104.930 0.0066 0.0068 0.0019 0.0055 8.6E-4 0.0016 0.0010 9.0E-4 0.0015 0.0016
261.426 104.931 0.0073 0.0045 0.0025 0.0059 0.0018 0.0014 0.0010 9.5E-4 0.0017 0.0014
269.087 104.932 0.0069 0.0025 0.0020 0.0054 0.0025 0.0015 8.0E-4 0.0010 0.0015 0.0012
276.972 104.932 0.0068 0.0031 0.0022 0.0050 0.0021 0.0013 9.0E-4 0.0017 0.0016 0.0019
285.088 104.933 0.0057 0.0036 0.0012 0.0046 0.0019 0.0011 9.6E-4 0.0015 0.0013 0.0011
293.441 104.933 0.0057 0.0037 0.0011 0.0043 0.0018 0.0012 0.0011 0.0016 0.0013 0.0016
302.040 104.934 0.0065 0.0042 0.0015 0.0049 0.0022 0.0014 0.0013 0.0014 0.0016 0.0017
310.890 104.935 0.0070 0.0034 0.0017 0.0054 0.0019 0.0018 0.0012 0.0014 0.0015 0.0019
320.000 104.935 0.0064 0.0027 0.0014 0.0049 0.0012 0.0013 0.0013 0.0019 0.0015 0.0021
329.377 104.936 0.0056 0.0025 0.0022 0.0037 0.0015 0.0013 0.0014 0.0016 0.0013 0.0018
339.028 104.937 0.0056 0.0044 0.0018 0.0038 0.0018 0.0015 0.0010 0.0013 0.0019 0.0014
348.962 104.939 0.0049 0.024 0.0017 0.0028 0.0014 0.0016 0.0013 0.0016 0.0019 0.0011
359.188 104.941 0.0052 0.0031 0.0018 0.0026 0.0013 0.0015 0.0018 0.0021 0.0019 0.0014
369.713 104.943 0.0061 0.0022 0.0016 0.0040 0.0018 0.0018 0.0020 0.0021 0.0016 0.0010
380.546 104.945 0.0056 0.0025 0.0015 0.0036 0.0019 0.0013 0.0022 0.0020 0.0013 7.7E-4
391.697 104.948 0.0054 0.0043 0.0012 0.0036 0.0017 0.0013 0.0016 0.0019 0.0012 0.0015
403.175 104.950 0.0056 0.0026 0.0016 0.0037 0.0017 0.0014 0.0017 0.0018 0.0013 0.0015
414.989 104.953 0.0059 0.0030 0.0020 0.0037 0.0016 0.0018 0.0015 0.0016 0.0019 0.0017
427.149 104.956 0.0056 0.0032 0.0017 0.0032 0.0018 0.0016 0.0019 0.0015 0.0017 0.0017
439.665 104.958 0.0064 0.0029 0.0024 0.0037 0.0012 0.0024 0.0017 0.0015 0.0026 0.0015
452.548 104.960 0.0067 0.0039 0.0026 0.0033 0.0020 0.0021 0.0015 0.0023 0.0021 0.0024
465.809 104.962 0.0063 0.0027 0.0023 0.0031 0.0023 0.0018 0.0015 0.0026 0.0022 0.0017
479.458 104.963 0.0060 0.0030 0.0020 0.0034 0.0018 0.0020 0.0013 0.0017 0.0027 0.0014
493.507 104.964 0.0059 0.0029 0.0019 0.0028 0.0019 0.0019 0.0014 0.0024 0.0024 0.0017
507.968 104.964 0.0060 0.0038 0.0018 0.0019 0.0024 0.0020 0.0016 0.0025 0.0025 0.0022
522.853 104.965 0.0056 0.0028 0.0018 0.0018 0.0023 0.0022 0.0018 0.0019 0.0018 0.0021
538.174 104.965 0.0063 0.0058 0.0019 0.0033 0.0019 0.0023 0.0023 0.0020 0.0017 0.0020
553.943 104.965 0.0069 0.0036 0.0022 0.0044 0.0020 0.0020 0.0019 0.0016 0.0021 0.0020
570.175 104.966 0.0060 0.0036 0.0019 0.0035 0.0020 0.0018 0.0016 0.0016 0.0021 0.0019
586.883 104.967 0.0063 0.0046 0.0022 0.0037 0.0017 0.0019 0.0020 0.0023 0.0018 0.0012
604.080 104.969 0.0061 0.0035 0.0023 0.0029 0.0020 0.0022 0.0021 0.0021 0.0018 0.0014
621.780 104.970 0.0070 0.0042 0.0027 0.0030 0.0023 0.0025 0.0023 0.0022 0.0028 0.0019
640.000 104.971 0.0068 0.0035 0.0030 0.0033 0.0018 0.0019 0.0022 0.0018 0.0026 0.0022
658.753 104.972 0.0063 0.0045 0.0027 0.0034 0.0019 0.0016 0.0018 0.0017 0.0019 0.0021
678.056 104.972 0.0063 0.0032 0.0022 0.0032 0.0024 0.0021 0.0020 0.0020 0.0020 0.0019
697.925 104.971 0.0066 0.0049 0.0023 0.0026 0.0021 0.0029 0.0024 0.0026 0.0017 0.0019
718.376 104.970 0.0068 0.0045 0.0028 0.0028 0.0024 0.0019 0.0028 0.0020 0.0020 0.0024
739.426 104.968 0.0072 0.0045 0.0032 0.0033 0.0022 0.0022 0.0025 0.0019 0.0022 0.0024
761.093 104.967 0.0070 0.0053 0.0032 0.0024 0.0029 0.0023 0.0026 0.0018 0.0021 0.0021
783.394 104.967 0.0071 0.0057 0.0027 0.0024 0.0028 0.0026 0.0025 0.0027 0.0020 0.0023
806.349 104.968 0.0073 0.0032 0.0027 0.0025 0.0024 0.0030 0.0023 0.0025 0.0025 0.0027
829.977 104.971 0.0073 0.0047 0.0024 0.0030 0.0026 0.0026 0.0025 0.0023 0.0026 0.0026
854.297 104.975 0.0076 0.0055 0.0034 0.0036 0.0021 0.0024 0.0019 0.0026 0.0027 0.0023
879.330 104.980 0.0075 0.0052 0.0031 0.0036 0.0018 0.0030 0.0018 0.0025 0.0027 0.0021
905.097 104.983 0.0079 0.0053 0.0032 0.0039 0.0020 0.0030 0.0021 0.0022 0.0026 0.0028
931.618 104.986 0.0075 0.0049 0.0034 0.0034 0.0019 0.0025 0.0016 0.0026 0.0026 0.0026
958.917 104.987 0.0067 0.0056 0.0029 0.0025 0.0025 0.0023 0.0021 0.0021 0.0025 0.0018
987.015 104.987 0.0068 0.0046 0.0027 0.0029 0.0024 0.0028 0.0021 0.0016 0.0024 0.0020
1015.937 104.987 0.0075 0.0050 0.0031 0.0038 0.0024 0.0023 0.0024 0.0016 0.0024 0.0026
1045.706 104.987 0.0079 0.0068 0.0023 0.0036 0.0030 0.0020 0.0034 0.0022 0.0030 0.0025
1076.347 104.988 0.0080 0.0053 0.0026 0.0035 0.0033 0.0024 0.0026 0.0020 0.0029 0.0029
1107.887 104.987 0.0085 0.0039 0.0033 0.0036 0.0022 0.0024 0.0030 0.0023 0.0025 0.0042
1140.350 104.985 0.0082 0.0053 0.0028 0.0036 0.0020 0.0027 0.0029 0.0023 0.0028 0.0038
1173.765 104.982 0.0079 0.0062 0.0034 0.0034 0.0019 0.0025 0.0023 0.0028 0.0027 0.0030
1208.159 104.979 0.0081 0.0045 0.0036 0.0030 0.0027 0.0022 0.0022 0.0029 0.0031 0.0031
1243.561 104.978 0.0087 0.0052 0.0035 0.0028 0.0031 0.0025 0.0022 0.0028 0.0037 0.0035
1280.000 104.982 0.0085 0.0051 0.0034 0.0029 0.0031 0.0026 0.0026 0.0032 0.0030 0.0032
1317.507 104.988 0.0083 0.0081 0.0035 0.0026 0.0032 0.0031 0.0025 0.0024 0.0034 0.0027
1356.113 104.995 0.0090 0.0043 0.0044 0.0032 0.0035 0.0028 0.0023 0.0033 0.0024 0.0030
1395.850 104.999 0.0099 0.0050 0.0047 0.0042 0.0033 0.0028 0.0029 0.0036 0.0029 0.0029
1436.751 105.000 0.010 0.0056 0.0044 0.0044 0.0030 0.0027 0.0028 0.0042 0.0034 0.0027
1478.851 105.000 0.0097 0.0054 0.0042 0.0046 0.0035 0.0030 0.0027 0.0036 0.0029 0.0023
1522.185 104.999 0.0097 0.0052 0.0037 0.0043 0.0034 0.0036 0.0029 0.0030 0.0028 0.0034
1566.789 104.997 0.0096 0.0063 0.0039 0.0043 0.0029 0.0038 0.0026 0.0033 0.0027 0.0033
1612.699 104.991 0.0093 0.0063 0.0039 0.0039 0.0034 0.0031 0.0032 0.0030 0.0031 0.0026
1659.955 104.985 0.0096 0.0075 0.0034 0.0036 0.0031 0.0032 0.0049 0.0030 0.0026 0.0029
1708.595 104.984 0.0091 0.0074 0.0040 0.0033 0.0031 0.0028 0.0037 0.0031 0.0026 0.0031
1758.661 104.991 0.0097 0.0060 0.0043 0.0035 0.0040 0.0033 0.0034 0.0032 0.0025 0.0027
1810.193 105.000 0.0098 0.0054 0.0037 0.0037 0.0042 0.0034 0.0033 0.0033 0.0026 0.0032
1863.236 105.005 0.010 0.0049 0.0045 0.0046 0.0034 0.0033 0.0033 0.0043 0.0031 0.0028
1917.833 105.005 0.011 0.0069 0.0046 0.0040 0.0031 0.0041 0.0035 0.0039 0.0034 0.0032
1974.030 105.002 0.011 0.0061 0.0044 0.0032 0.0034 0.0055 0.0035 0.0036 0.0034 0.0033
2031.873 104.995 0.011 0.0076 0.0047 0.0044 0.0040 0.0046 0.0042 0.0031 0.0031 0.0029
2091.412 104.984 0.010 0.0082 0.0046 0.0038 0.0034 0.0043 0.0046 0.0027 0.0031 0.0024
2152.695 104.979 0.010 0.0091 0.0054 0.0042 0.0040 0.0037 0.0032 0.0034 0.0030 0.0019
2215.774 104.985 0.010 0.0071 0.0050 0.0035 0.0038 0.0036 0.0032 0.0039 0.0035 0.0016
2280.701 104.995 0.010 0.0094 0.0048 0.0040 0.0038 0.0042 0.0031 0.0035 0.0029 0.0010
