* Distortion data saved by REW V5.20.13
* Dated: Oct 16, 2023 6:52:14 AM
* Source: Universal Audio Thunderbolt, Universal Audio Thunderbolt, 1, volume: no control
* Format: 256k Log Swept Sine, 1 sweep at -40.0 dBFS with no timing reference
* Measurement: SSL 20 Oct 16
* Frequency Step: 24 ppo
* Freq (Hz) Fundamental (dB) THD (%) Noise (%) H2 (%) H3 (%) H4 (%) H5 (%) H6 (%) H7 (%) H8 (%) H9 (%)
20.000 91.458 0.396 0.011 0.396 0.020 0.013 0.0032 0.0047 0.0019 0.0024 0.0030
20.586 91.391 0.388 0.013 0.386 0.034 0.018 0.0042 0.0055 0.0020 0.0030 0.0037
21.189 91.323 0.360 0.013 0.357 0.038 0.020 0.0050 0.0065 0.0023 0.0038 0.0036
21.810 91.259 0.344 0.013 0.341 0.037 0.020 0.0073 0.0086 0.0033 0.0054 0.0037
22.449 91.199 0.344 0.013 0.341 0.035 0.019 0.014 0.013 0.0062 0.0091 0.0040
23.107 91.141 0.320 0.0087 0.313 0.054 0.022 0.022 0.020 0.012 0.014 0.0049
23.784 91.084 0.275 0.0087 0.258 0.075 0.033 0.030 0.025 0.019 0.017 0.0064
24.481 91.025 0.223 0.0088 0.190 0.091 0.043 0.035 0.029 0.026 0.019 0.0068
25.198 90.964 0.173 0.0088 0.122 0.098 0.046 0.034 0.029 0.030 0.019 0.0064
25.937 90.907 0.152 0.0090 0.099 0.094 0.042 0.031 0.024 0.028 0.017 0.0054
26.697 90.857 0.141 0.0091 0.101 0.082 0.033 0.026 0.018 0.023 0.014 0.0046
27.479 90.821 0.093 0.0091 0.043 0.072 0.024 0.021 0.013 0.017 0.011 0.0040
28.284 90.800 0.071 0.011 0.017 0.061 0.018 0.016 0.0086 0.014 0.0081 0.0042
29.113 90.797 0.068 0.011 0.044 0.045 0.015 0.012 0.0062 0.011 0.0068 0.0046
29.966 90.811 0.114 0.011 0.105 0.038 0.015 0.012 0.0048 0.0097 0.0056 0.0049
30.844 90.841 0.142 0.011 0.131 0.050 0.017 0.015 0.0049 0.0088 0.0046 0.0038
31.748 90.883 0.165 0.0073 0.145 0.071 0.020 0.020 0.0072 0.0089 0.0045 0.0027
32.678 90.928 0.159 0.0073 0.135 0.075 0.022 0.023 0.0089 0.0090 0.0048 0.0021
33.636 90.970 0.128 0.0072 0.106 0.063 0.022 0.020 0.0087 0.0087 0.0053 0.0020
34.621 91.007 0.097 0.0068 0.077 0.052 0.019 0.014 0.0092 0.0070 0.0056 0.0022
35.636 91.044 0.090 0.0067 0.070 0.051 0.015 0.0089 0.010 0.0054 0.0060 0.0031
36.680 91.087 0.088 0.0063 0.069 0.051 0.012 0.0092 0.011 0.0045 0.0062 0.0042
37.755 91.137 0.075 0.0062 0.058 0.042 0.011 0.0077 0.0096 0.0045 0.0056 0.0046
38.861 91.193 0.067 0.0062 0.059 0.029 0.0092 0.0055 0.0072 0.0048 0.0043 0.0035
40.000 91.251 0.065 0.0063 0.061 0.021 0.0075 0.0045 0.0062 0.0051 0.0032 0.0018
41.172 91.308 0.060 0.0063 0.055 0.021 0.0064 0.0075 0.0066 0.0055 0.0037 0.0012
42.379 91.359 0.056 0.0069 0.048 0.022 0.0058 0.011 0.0078 0.0054 0.0051 0.0019
43.620 91.404 0.057 0.0068 0.050 0.019 0.0060 0.012 0.0083 0.0044 0.0058 0.0024
44.898 91.446 0.059 0.0096 0.055 0.015 0.0068 0.0086 0.0073 0.0029 0.0050 0.0020
46.214 91.487 0.055 0.0096 0.053 0.011 0.0066 0.0047 0.0057 0.0020 0.0036 0.0019
47.568 91.524 0.051 0.035 0.050 0.0089 0.0047 0.0022 0.0035 0.0025 0.0023 0.0019
48.962 91.555 0.050 0.035 0.049 0.0075 0.0029 0.0018 0.0017 0.0032 0.0015 0.0014
50.397 91.576 0.051 0.038 0.050 0.0084 0.0024 0.0020 8.2E-4 0.0029 0.0015 0.0012
51.874 91.591 0.049 0.038 0.048 0.010 0.0028 0.0014 8.3E-4 0.0014 0.0016 0.0011
53.394 91.601 0.048 0.011 0.046 0.011 0.0029 0.0012 0.0013 0.0017 0.0015 0.0014
54.958 91.605 0.051 0.011 0.049 0.013 0.0023 0.0015 0.0020 0.0024 0.0014 0.0017
56.569 91.606 0.053 0.0074 0.051 0.014 0.0030 0.0018 0.0022 0.0032 0.0020 0.0019
58.226 91.609 0.051 0.0052 0.049 0.014 0.0031 0.0023 0.0020 0.0034 0.0028 0.0020
59.932 91.608 0.050 0.0052 0.048 0.013 0.0033 0.0029 0.0016 0.0026 0.0030 0.0018
61.688 91.604 0.051 0.0032 0.049 0.010 0.0050 0.0030 0.0012 0.0020 0.0023 0.0012
63.496 91.600 0.049 0.0062 0.048 0.011 0.0043 0.0024 0.0012 0.0017 0.0014 7.5E-4
65.357 91.600 0.049 0.0062 0.048 0.012 0.0033 0.0014 0.0012 0.0011 0.0013 6.2E-4
67.272 91.601 0.051 0.0053 0.049 0.014 0.0025 0.0017 9.6E-4 0.0011 0.0016 9.6E-4
69.243 91.601 0.052 0.0030 0.050 0.013 0.0016 0.0029 9.0E-4 0.0012 0.0013 0.0016
71.272 91.602 0.052 0.0030 0.050 0.014 0.0019 0.0016 0.0012 0.0014 0.0012 0.0022
73.360 91.604 0.053 0.0033 0.051 0.015 0.0022 0.0010 0.0012 0.0013 0.0012 0.0018
75.510 91.609 0.054 0.0026 0.052 0.014 0.0028 0.0020 0.0011 7.7E-4 0.0010 0.0012
77.723 91.618 0.049 0.0053 0.048 0.012 0.0023 0.0026 8.3E-4 9.3E-4 0.0013 0.0015
80.000 91.630 0.050 0.0034 0.048 0.014 0.0019 0.0016 0.0013 0.0012 0.0012 0.0020
82.344 91.642 0.048 0.0040 0.046 0.015 0.0021 0.0016 0.0010 6.2E-4 0.0011 0.0023
84.757 91.648 0.049 0.0040 0.046 0.016 0.0032 0.0014 8.9E-4 5.3E-4 7.9E-4 0.0017
87.241 91.642 0.053 0.0042 0.050 0.014 0.0056 0.0016 0.0011 5.8E-4 0.0011 0.0013
89.797 91.627 0.052 0.0021 0.050 0.012 0.0043 0.0019 0.0018 6.6E-4 0.0015 0.0011
92.428 91.607 0.052 0.0025 0.051 0.012 0.0028 0.0015 0.0018 0.0012 0.0017 0.0012
95.137 91.588 0.053 0.0018 0.051 0.013 0.0025 0.0011 8.2E-4 0.0019 0.0013 0.0011
97.924 91.573 0.052 0.0041 0.050 0.011 0.0021 9.8E-4 0.0013 0.0023 0.0012 8.5E-4
100.794 91.559 0.051 0.0075 0.050 0.011 0.0024 0.0018 0.0014 0.0023 0.0019 7.7E-4
103.747 91.543 0.051 0.0017 0.049 0.012 0.0022 0.0023 0.0011 0.0026 0.0014 0.0017
106.787 91.534 0.048 0.0027 0.046 0.011 0.0027 0.0018 0.0011 0.0022 0.0012 0.0013
109.916 91.535 0.046 0.0017 0.045 0.010 0.0030 0.0019 0.0013 0.0016 9.7E-4 0.0015
113.137 91.542 0.048 0.0020 0.048 0.0075 0.0028 0.0024 0.0017 0.0011 0.0014 0.0019
116.452 91.549 0.049 0.0022 0.049 0.0050 0.0017 0.0020 0.0018 0.0017 0.0018 0.0019
119.865 91.560 0.048 0.0015 0.047 0.0070 0.0022 0.0021 0.0019 0.0017 0.0012 0.0019
123.377 91.578 0.049 0.0016 0.048 0.0082 0.0033 0.0018 0.0023 0.0018 0.0012 0.0020
126.992 91.599 0.048 0.0023 0.047 0.0095 0.0029 0.0014 0.0016 0.0011 0.0011 0.0016
130.713 91.616 0.052 0.0025 0.050 0.0100 0.0024 0.0017 0.0017 8.8E-4 0.0012 0.0014
134.543 91.624 0.051 0.0022 0.050 0.0098 0.0017 0.0014 0.0011 0.0013 0.0011 0.0017
138.486 91.627 0.049 0.0021 0.047 0.011 0.0025 0.0014 9.1E-4 0.0012 0.0020 0.0012
142.544 91.629 0.049 0.0032 0.048 0.011 0.0021 0.0018 0.0010 0.0010 0.0022 0.0012
146.721 91.630 0.049 0.0085 0.047 0.011 0.0020 0.0018 0.0017 0.0015 0.0024 0.0015
151.020 91.632 0.049 0.011 0.048 0.011 0.0019 0.0017 0.0018 0.0013 0.0016 0.0016
155.445 91.635 0.050 0.0037 0.049 0.011 0.0016 9.9E-4 0.0012 0.0014 0.0013 0.0010
160.000 91.641 0.049 0.0025 0.048 0.010 0.0015 0.0015 0.0015 0.0015 0.0019 8.5E-4
164.688 91.643 0.049 0.0027 0.048 0.011 0.0017 0.0013 0.0014 8.6E-4 0.0012 8.5E-4
169.514 91.641 0.050 0.0026 0.049 0.011 0.0013 0.0010 0.0014 0.0010 0.0012 0.0010
174.481 91.633 0.050 0.0017 0.048 0.011 0.0023 9.2E-4 0.0017 0.0015 0.0011 0.0015
179.594 91.626 0.050 0.0023 0.048 0.012 0.0028 6.9E-4 0.0019 0.0019 0.0016 0.0012
184.856 91.619 0.051 0.0026 0.050 0.012 0.0024 0.0014 0.0022 0.0015 0.0016 0.0014
190.273 91.616 0.053 0.0036 0.051 0.011 0.0020 0.0022 0.0022 0.0016 0.0019 0.0017
195.849 91.615 0.052 0.0039 0.051 0.011 0.0016 0.0013 0.0017 0.0012 0.0019 0.0019
201.587 91.606 0.051 0.0044 0.049 0.011 0.0022 0.0011 0.0017 0.0012 0.0016 0.0015
207.494 91.596 0.049 0.0032 0.047 0.010 0.0022 0.0015 0.0015 0.0014 0.0013 0.0012
213.574 91.590 0.048 0.0031 0.047 0.011 0.0024 0.0019 0.0015 0.0020 0.0016 0.0014
219.833 91.591 0.050 0.0018 0.049 0.012 0.0015 0.0016 0.0017 0.0016 0.0015 0.0014
226.274 91.602 0.050 0.0031 0.048 0.012 0.0014 0.0021 0.0010 0.0011 0.0021 0.0013
232.905 91.615 0.047 0.0030 0.045 0.011 0.0019 0.0027 0.0014 0.0014 0.0018 0.0013
239.729 91.609 0.048 0.0024 0.047 0.010 0.0019 0.0023 0.0013 0.0014 0.0011 0.0011
246.754 91.586 0.048 0.015 0.046 0.010 0.0027 0.0015 0.0013 0.0014 0.0012 0.0012
253.984 91.565 0.049 0.0098 0.048 0.0092 0.0025 0.0012 0.0014 0.0021 0.0013 0.0013
261.426 91.554 0.051 0.0033 0.049 0.011 0.0022 0.0012 0.0017 0.0025 0.0011 0.0018
269.087 91.562 0.048 0.0059 0.047 0.010 0.0024 0.0016 0.0018 0.0021 0.0014 0.0016
276.972 91.578 0.048 0.0022 0.047 0.011 0.0025 0.0023 0.0016 0.0012 0.0021 0.0015
285.088 91.581 0.050 0.0018 0.049 0.010 0.0020 0.0024 0.0016 0.0013 0.0021 0.0015
293.441 91.575 0.051 0.0040 0.050 0.0092 0.0020 0.0024 0.0019 0.0025 0.0012 0.0011
302.040 91.569 0.049 0.0035 0.048 0.011 0.0021 0.0019 0.0019 0.0030 0.0015 7.1E-4
310.890 91.568 0.048 0.0043 0.046 0.012 0.0022 0.0015 0.0020 0.0029 0.0018 8.2E-4
320.000 91.574 0.050 0.0033 0.048 0.012 0.0025 0.0020 0.0018 0.0021 0.0021 0.0016
329.377 91.576 0.050 0.0023 0.049 0.011 0.0021 0.0015 0.0020 0.0012 0.0015 0.0020
339.028 91.567 0.049 0.0035 0.048 0.011 0.0028 0.0015 0.0013 0.0013 0.0017 0.0020
348.962 91.566 0.049 0.019 0.048 0.0098 0.0021 0.0013 0.0020 0.0018 0.0014 0.0019
359.188 91.576 0.049 0.0023 0.048 0.010 0.0019 0.0019 0.0026 0.0022 0.0019 0.0022
369.713 91.595 0.048 0.0028 0.047 0.0093 0.0025 0.0011 0.0012 0.0018 0.0021 0.0013
380.546 91.618 0.047 0.0018 0.046 0.0090 0.0024 0.0020 0.0016 0.0017 0.0020 9.6E-4
391.697 91.629 0.049 0.0025 0.047 0.011 0.0019 0.0029 0.0023 0.0022 0.0023 0.0012
403.175 91.639 0.050 0.0043 0.049 0.011 0.0018 0.0022 0.0022 0.0024 0.0016 0.0016
414.989 91.648 0.052 0.0028 0.051 0.012 0.0019 0.0027 0.0023 0.0021 0.0020 0.0019
427.149 91.656 0.052 0.0040 0.050 0.012 0.0021 0.0021 0.0022 0.0023 0.0017 0.0019
439.665 91.660 0.051 0.0037 0.049 0.013 0.0026 0.0022 0.0019 0.0021 0.0023 0.0020
452.548 91.660 0.051 0.0042 0.050 0.013 0.0023 0.0016 0.0020 0.0023 0.0025 0.0024
465.809 91.659 0.051 0.0035 0.049 0.013 0.0026 0.0018 0.0022 0.0020 0.0021 0.0021
479.458 91.660 0.051 0.0045 0.049 0.013 0.0025 0.0020 0.0024 0.0018 0.0023 0.0019
493.507 91.663 0.052 0.0040 0.050 0.014 0.0023 0.0024 0.0019 0.0019 0.0025 0.0017
507.968 91.664 0.052 0.0044 0.049 0.014 0.0022 0.0026 0.0020 0.0014 0.0025 0.0017
522.853 91.663 0.050 0.0052 0.048 0.013 0.0018 0.0027 0.0019 0.0014 0.0022 0.0023
538.174 91.656 0.051 0.0044 0.050 0.012 0.0018 0.0026 0.0017 0.0014 0.0027 0.0019
553.943 91.647 0.053 0.0030 0.051 0.012 0.0019 0.0024 0.0023 0.0013 0.0027 0.0016
570.175 91.635 0.053 0.0034 0.052 0.012 0.0029 0.0026 0.0020 0.0020 0.0028 0.0018
586.883 91.621 0.052 0.0042 0.050 0.012 0.0031 0.0019 0.0018 0.0018 0.0028 0.0028
604.080 91.608 0.051 0.0031 0.049 0.011 0.0028 0.0021 0.0020 0.0019 0.0027 0.0029
621.780 91.600 0.051 0.0034 0.049 0.012 0.0024 0.0016 0.0021 0.0022 0.0028 0.0023
640.000 91.591 0.048 0.0030 0.046 0.012 0.0027 0.0018 0.0024 0.0027 0.0027 0.0025
658.753 91.580 0.050 0.0040 0.048 0.013 0.0027 0.0016 0.0020 0.0019 0.0027 0.0023
678.056 91.573 0.052 0.0038 0.050 0.014 0.0024 0.0024 0.0024 0.0020 0.0018 0.0031
697.925 91.552 0.052 0.0045 0.050 0.014 0.0027 0.0028 0.0019 0.0024 0.0018 0.0023
718.376 91.509 0.050 0.0045 0.048 0.014 0.0033 0.0024 0.0021 0.0025 0.0023 0.0026
739.426 91.470 0.052 0.0042 0.050 0.012 0.0033 0.0022 0.0020 0.0031 0.0025 0.0032
761.093 91.456 0.052 0.0050 0.050 0.0099 0.0033 0.0021 0.0026 0.0031 0.0026 0.0024
783.394 91.461 0.049 0.0045 0.047 0.012 0.0029 0.0025 0.0026 0.0024 0.0035 0.0028
806.349 91.487 0.051 0.0049 0.049 0.014 0.0033 0.0021 0.0032 0.0023 0.0028 0.0033
829.977 91.521 0.052 0.0045 0.049 0.015 0.0032 0.0026 0.0030 0.0017 0.0019 0.0030
854.297 91.536 0.052 0.0045 0.050 0.014 0.0026 0.0029 0.0026 0.0021 0.0026 0.0025
879.330 91.542 0.050 0.0040 0.048 0.013 0.0026 0.0027 0.0029 0.0025 0.0024 0.0024
905.097 91.547 0.052 0.0048 0.049 0.014 0.0034 0.0026 0.0026 0.0033 0.0024 0.0024
931.618 91.549 0.053 0.0053 0.050 0.014 0.0029 0.0028 0.0035 0.0036 0.0030 0.0026
958.917 91.547 0.052 0.0044 0.050 0.013 0.0027 0.0025 0.0030 0.0033 0.0026 0.0027
987.015 91.551 0.052 0.0049 0.049 0.013 0.0032 0.0027 0.0028 0.0032 0.0029 0.0030
1015.937 91.564 0.053 0.0046 0.050 0.014 0.0042 0.0032 0.0029 0.0031 0.0033 0.0031
1045.706 91.572 0.052 0.0059 0.050 0.013 0.0042 0.0027 0.0030 0.0033 0.0034 0.0028
1076.347 91.565 0.053 0.0056 0.051 0.014 0.0032 0.0032 0.0036 0.0035 0.0026 0.0034
1107.887 91.548 0.052 0.0051 0.050 0.014 0.0024 0.0027 0.0032 0.0028 0.0028 0.0038
1140.350 91.527 0.053 0.0062 0.051 0.014 0.0034 0.0031 0.0035 0.0027 0.0026 0.0038
1173.765 91.507 0.053 0.0054 0.051 0.013 0.0031 0.0032 0.0045 0.0028 0.0028 0.0039
1208.159 91.488 0.054 0.0047 0.051 0.014 0.0029 0.0031 0.0035 0.0030 0.0035 0.0038
1243.561 91.477 0.053 0.0045 0.051 0.014 0.0036 0.0034 0.0033 0.0026 0.0042 0.0033
1280.000 91.477 0.054 0.0065 0.051 0.015 0.0031 0.0033 0.0024 0.0032 0.0032 0.0032
1317.507 91.475 0.053 0.0046 0.050 0.014 0.0025 0.0029 0.0031 0.0034 0.0035 0.0035
1356.113 91.465 0.053 0.0067 0.050 0.015 0.0030 0.0031 0.0033 0.0040 0.0031 0.0038
1395.850 91.455 0.052 0.0056 0.049 0.014 0.0027 0.0034 0.0032 0.0036 0.0029 0.0027
1436.751 91.451 0.053 0.0047 0.050 0.015 0.0034 0.0032 0.0034 0.0031 0.0032 0.0030
1478.851 91.438 0.052 0.0055 0.049 0.014 0.0035 0.0036 0.0032 0.0038 0.0036 0.0032
1522.185 91.399 0.054 0.0051 0.051 0.015 0.0034 0.0041 0.0037 0.0039 0.0033 0.0032
1566.789 91.357 0.053 0.0056 0.050 0.015 0.0039 0.0040 0.0044 0.0037 0.0030 0.0039
1612.699 91.336 0.053 0.0067 0.050 0.014 0.0041 0.0035 0.0041 0.0038 0.0038 0.0038
1659.955 91.342 0.054 0.0080 0.051 0.014 0.0043 0.0038 0.0043 0.0040 0.0041 0.0048
1708.595 91.349 0.056 0.0066 0.053 0.014 0.0039 0.0037 0.0051 0.0040 0.0039 0.0042
1758.661 91.342 0.057 0.0079 0.054 0.014 0.0038 0.0037 0.0049 0.0041 0.0037 0.0042
1810.193 91.322 0.057 0.0050 0.055 0.014 0.0042 0.0044 0.0037 0.0036 0.0032 0.0042
1863.236 91.292 0.057 0.0069 0.055 0.013 0.0044 0.0038 0.0036 0.0037 0.0031 0.0042
1917.833 91.288 0.056 0.0069 0.053 0.014 0.0049 0.0045 0.0041 0.0038 0.0037 0.0044
1974.030 91.291 0.056 0.0075 0.052 0.016 0.0046 0.0046 0.0044 0.0034 0.0036 0.0042
2031.873 91.287 0.055 0.0063 0.052 0.015 0.0039 0.0045 0.0040 0.0038 0.0038 0.0042
2091.412 91.297 0.056 0.0058 0.054 0.014 0.0036 0.0041 0.0041 0.0039 0.0041 0.0033
2152.695 91.315 0.057 0.0089 0.054 0.013 0.0041 0.0046 0.0036 0.0035 0.0042 0.0029
2215.774 91.314 0.056 0.0072 0.054 0.013 0.0039 0.0043 0.0040 0.0038 0.0035 0.0026
2280.701 91.317 0.056 0.0061 0.053 0.015 0.0040 0.0044 0.0044 0.0038 0.0036 0.0016
