* Distortion data saved by REW V5.20.13
* Dated: Sep 10, 2023 9:47:32 PM
* Source: ASIO ASIO Lynx, Aurora(n) Record 26
* Format: 256k Log Swept Sine, 1 sweep at -14.0 dBFS with no timing reference
* Measurement: VSP-2+12DB 九月 11
* Frequency Step: 24 ppo
* Freq (Hz) Fundamental (dB) THD (%) Noise (%) H2 (%) H3 (%) H4 (%) H5 (%) H6 (%) H7 (%) H8 (%) H9 (%)
10.000 103.034 0.094 0.0077 0.042 0.080 0.012 0.016 0.0077 0.0044 0.0017 0.0018
10.293 103.055 0.090 0.0055 0.038 0.079 0.011 0.015 0.0075 0.0043 0.0017 0.0017
10.595 103.067 0.087 0.0055 0.035 0.077 0.011 0.014 0.0071 0.0042 0.0016 0.0017
10.905 103.075 0.084 0.0055 0.032 0.075 0.011 0.013 0.0067 0.0040 0.0016 0.0016
11.225 103.081 0.081 0.0054 0.030 0.073 0.011 0.012 0.0062 0.0037 0.0015 0.0015
11.554 103.085 0.078 0.0054 0.028 0.071 0.010 0.011 0.0058 0.0035 0.0014 0.0014
11.892 103.089 0.076 0.0054 0.026 0.070 0.010 0.010 0.0053 0.0033 0.0013 0.0013
12.241 103.092 0.074 0.0054 0.024 0.069 0.010 0.0093 0.0049 0.0031 0.0012 0.0011
12.599 103.092 0.073 0.0054 0.023 0.067 0.0099 0.0083 0.0044 0.0029 0.0011 9.7E-4
12.968 103.091 0.071 0.0054 0.022 0.066 0.0098 0.0075 0.0040 0.0026 0.0010 8.0E-4
13.348 103.091 0.069 0.0039 0.021 0.065 0.0095 0.0067 0.0036 0.0024 9.1E-4 5.8E-4
13.740 103.089 0.067 0.0039 0.020 0.063 0.0093 0.0060 0.0032 0.0022 7.7E-4 3.7E-4
14.142 103.087 0.065 0.0039 0.020 0.061 0.0089 0.0055 0.0027 0.0019 6.5E-4 2.6E-4
14.557 103.085 0.063 0.0039 0.019 0.059 0.0085 0.0050 0.0023 0.0017 5.9E-4 2.5E-4
14.983 103.083 0.061 0.0039 0.019 0.057 0.0080 0.0046 0.0019 0.0016 6.1E-4 3.1E-4
15.422 103.080 0.059 0.0039 0.019 0.055 0.0074 0.0043 0.0016 0.0015 7.2E-4 4.2E-4
15.874 103.077 0.057 0.0039 0.019 0.053 0.0068 0.0039 0.0015 0.0014 8.8E-4 5.2E-4
16.339 103.074 0.054 0.0047 0.019 0.050 0.0063 0.0036 0.0014 0.0013 0.0010 6.0E-4
16.818 103.071 0.051 0.0047 0.018 0.047 0.0059 0.0033 0.0014 0.0012 0.0012 6.7E-4
17.311 103.067 0.048 0.0047 0.017 0.044 0.0054 0.0030 0.0014 0.0011 0.0013 6.7E-4
17.818 103.064 0.046 0.0047 0.017 0.042 0.0048 0.0029 0.0013 9.7E-4 0.0014 6.2E-4
18.340 103.061 0.044 0.0047 0.016 0.041 0.0041 0.0029 0.0014 8.8E-4 0.0014 5.6E-4
18.877 103.058 0.043 0.0047 0.016 0.040 0.0035 0.0030 0.0014 8.4E-4 0.0014 5.1E-4
19.431 103.055 0.042 0.0076 0.015 0.038 0.0030 0.0029 0.0014 8.5E-4 0.0013 4.6E-4
20.000 103.052 0.040 0.0076 0.015 0.037 0.0026 0.0029 0.0014 8.7E-4 0.0011 4.5E-4
20.586 103.049 0.038 0.0076 0.014 0.035 0.0022 0.0025 0.0013 9.2E-4 9.2E-4 4.5E-4
21.189 103.046 0.036 0.0076 0.013 0.033 0.0020 0.0021 0.0012 0.0010 7.6E-4 4.3E-4
21.810 103.043 0.034 0.0076 0.012 0.031 0.0018 0.0017 0.0012 0.0010 6.5E-4 4.0E-4
22.449 103.041 0.032 0.0052 0.011 0.029 0.0016 0.0016 0.0013 9.5E-4 6.4E-4 3.8E-4
23.107 103.038 0.030 0.0052 0.010 0.028 0.0015 0.0016 0.0014 8.3E-4 7.1E-4 3.5E-4
23.784 103.036 0.028 0.0052 0.0100 0.026 0.0015 0.0016 0.0015 7.8E-4 7.6E-4 3.7E-4
24.481 103.033 0.027 0.0052 0.010 0.025 0.0016 0.0015 0.0017 8.0E-4 8.3E-4 4.3E-4
25.198 103.031 0.026 0.0030 0.010 0.024 0.0016 0.0015 0.0017 7.8E-4 8.1E-4 5.5E-4
25.937 103.029 0.026 0.0030 0.011 0.023 0.0014 0.0016 0.0014 6.6E-4 6.8E-4 7.2E-4
26.697 103.027 0.024 0.0030 0.011 0.022 0.0013 0.0019 0.0011 5.2E-4 6.0E-4 8.4E-4
27.479 103.026 0.023 0.0030 0.0093 0.021 0.0011 0.0021 7.5E-4 3.7E-4 5.5E-4 8.7E-4
28.284 103.024 0.021 0.0029 0.0085 0.019 0.0011 0.0022 4.5E-4 2.8E-4 7.0E-4 7.7E-4
29.113 103.022 0.020 0.0029 0.0079 0.018 0.0013 0.0022 2.9E-4 3.3E-4 0.0012 6.4E-4
29.966 103.021 0.018 0.0029 0.0073 0.017 0.0014 0.0020 3.1E-4 5.2E-4 0.0015 5.3E-4
30.844 103.019 0.017 0.0052 0.0065 0.016 0.0014 0.0017 4.2E-4 7.3E-4 0.0018 5.7E-4
31.748 103.018 0.016 0.0052 0.0053 0.015 0.0014 0.0015 3.6E-4 9.8E-4 0.0018 6.6E-4
32.678 103.017 0.015 0.0052 0.0044 0.014 0.0013 0.0014 1.9E-4 0.0012 0.0018 7.1E-4
33.636 103.016 0.014 0.0052 0.0040 0.013 0.0012 0.0014 1.9E-4 0.0014 0.0018 5.5E-4
34.621 103.015 0.014 0.0056 0.0042 0.013 0.0012 0.0015 4.1E-4 0.0016 0.0015 1.8E-4
35.636 103.013 0.013 0.0056 0.0042 0.012 0.0013 0.0015 6.3E-4 0.0016 0.0013 1.7E-4
36.680 103.013 0.012 0.0034 0.0038 0.011 0.0015 0.0014 6.6E-4 0.0015 0.0013 5.2E-4
37.755 103.012 0.011 0.0034 0.0030 0.010 0.0013 0.0012 6.3E-4 0.0013 0.0014 7.0E-4
38.861 103.011 0.010 0.0034 0.0025 0.0097 9.5E-4 0.0011 5.8E-4 0.0011 0.0012 9.0E-4
40.000 103.010 0.0099 0.0020 0.0024 0.0093 8.0E-4 0.0010 6.9E-4 1.0E-3 0.0011 0.0012
41.172 103.010 0.0096 0.0020 0.0026 0.0089 9.3E-4 9.6E-4 9.0E-4 8.8E-4 0.0010 0.0013
42.379 103.009 0.0094 0.0020 0.0021 0.0088 0.0011 0.0010 0.0010 7.2E-4 0.0010 0.0013
43.620 103.009 0.0089 0.0028 0.0017 0.0083 0.0012 0.0013 0.0011 5.6E-4 9.7E-4 0.0012
44.898 103.008 0.0080 0.0028 0.0014 0.0074 0.0011 0.0016 0.0011 4.9E-4 7.0E-4 0.0012
46.214 103.008 0.0071 0.0051 0.0017 0.0064 0.0010 0.0016 0.0014 5.7E-4 3.8E-4 9.7E-4
47.568 103.007 0.0066 0.0051 0.0023 0.0056 9.9E-4 0.0015 0.0015 8.0E-4 1.7E-4 0.0011
48.962 103.007 0.0065 0.010 0.0028 0.0052 7.9E-4 0.0014 0.0013 0.0010 1.9E-4 0.0017
50.397 103.007 0.0069 0.010 0.0034 0.0054 5.1E-4 0.0012 0.0012 9.3E-4 5.5E-4 0.0017
51.874 103.007 0.0065 0.0070 0.0031 0.0054 4.5E-4 7.2E-4 9.7E-4 7.3E-4 8.8E-4 0.0012
53.394 103.006 0.0057 0.0070 0.0019 0.0050 5.5E-4 6.3E-4 9.0E-4 6.7E-4 9.8E-4 6.8E-4
54.958 103.006 0.0051 0.0030 0.0016 0.0042 6.6E-4 0.0013 0.0011 6.7E-4 0.0011 9.1E-4
56.569 103.006 0.0047 0.0030 0.0019 0.0028 0.0011 0.0016 0.0019 8.8E-4 0.0013 0.0013
58.226 103.006 0.0048 0.0023 0.0015 0.0025 0.0015 0.0013 0.0024 9.0E-4 0.0013 0.0013
59.932 103.005 0.0047 0.0023 8.7E-4 0.0025 0.0021 0.0012 0.0025 6.1E-4 0.0013 8.9E-4
61.688 103.005 0.0051 0.0026 0.0014 0.0026 0.0026 0.0014 0.0023 0.0011 0.0012 4.7E-4
63.496 103.005 0.0047 0.0023 0.0012 0.0026 0.0020 0.0015 0.0020 0.0013 0.0011 4.6E-4
65.357 103.005 0.0037 0.0023 8.0E-4 0.0023 0.0012 0.0016 0.0016 7.2E-4 8.0E-4 5.5E-4
67.272 103.005 0.0034 0.0033 8.0E-4 0.0018 0.0015 0.0018 0.0010 2.7E-4 8.6E-4 5.9E-4
69.243 103.005 0.0033 0.0037 6.3E-4 0.0016 0.0019 0.0012 8.4E-4 6.0E-4 8.6E-4 0.0011
71.272 103.005 0.0031 0.0037 9.4E-4 0.0016 0.0013 7.3E-4 9.4E-4 9.5E-4 7.6E-4 0.0013
73.360 103.006 0.0031 0.0035 0.0020 0.0013 8.9E-4 5.1E-4 7.5E-4 0.0010 7.1E-4 9.1E-4
75.510 103.006 0.0038 0.0024 0.0026 0.0014 9.9E-4 9.2E-4 8.7E-4 0.0010 6.4E-4 0.0012
77.723 103.006 0.0038 0.0033 0.0016 0.0016 8.4E-4 0.0011 0.0013 0.0012 0.0012 0.0017
80.000 103.006 0.0042 0.0033 0.0018 0.0018 0.0011 7.1E-4 0.0017 0.0014 0.0014 0.0017
82.344 103.006 0.0045 0.0027 0.0021 0.0019 0.0015 7.5E-4 0.0018 0.0014 0.0014 0.0013
84.757 103.006 0.0041 0.0028 0.0019 0.0014 0.0016 0.0013 0.0018 0.0016 8.3E-4 8.0E-4
87.241 103.006 0.0047 0.0043 0.0022 0.0015 0.0015 0.0020 0.0017 0.0014 0.0010 0.0017
89.797 103.006 0.0050 0.0050 0.0018 0.0014 0.0016 0.0024 0.0015 0.0010 0.0011 0.0026
92.428 103.006 0.0045 0.0035 0.0011 0.0018 0.0018 0.0019 0.0013 0.0011 5.2E-4 0.0024
95.137 103.007 0.0040 0.0035 0.0016 0.0019 0.0019 0.0013 0.0013 7.0E-4 8.2E-4 0.0014
97.924 103.007 0.0039 0.0022 0.0016 0.0016 0.0012 0.0014 0.0016 9.3E-4 9.2E-4 0.0015
100.794 103.007 0.0036 0.0016 0.0013 0.0013 0.0011 0.0012 0.0013 0.0013 0.0012 0.0012
103.747 103.007 0.0036 0.0013 0.0015 9.8E-4 0.0012 0.0012 7.6E-4 0.0019 0.0015 9.2E-4
106.787 103.007 0.0039 0.0016 0.0018 0.0010 0.0010 0.0013 8.6E-4 0.0018 0.0018 8.1E-4
109.916 103.008 0.0041 0.0023 0.0014 0.0012 0.0011 0.0020 8.0E-4 0.0018 0.0019 9.8E-4
113.137 103.008 0.0039 0.0022 0.0014 0.0011 0.0012 0.0014 0.0011 0.0014 0.0020 0.0010
116.452 103.008 0.0042 0.0032 0.0017 0.0014 6.6E-4 0.0016 0.0011 0.0013 0.0020 0.0015
119.865 103.008 0.0036 0.0035 0.0016 0.0011 5.3E-4 0.0012 9.6E-4 0.0013 0.0016 0.0014
123.377 103.009 0.0033 0.0030 0.0013 7.6E-4 0.0011 0.0017 7.4E-4 8.3E-4 0.0014 0.0012
126.992 103.009 0.0037 0.0028 0.0017 0.0014 0.0016 0.0014 7.9E-4 0.0011 0.0012 0.0010
130.713 103.009 0.0043 0.0032 0.0013 0.0026 0.0013 0.0010 0.0015 0.0014 0.0014 0.0012
134.543 103.009 0.0039 0.0035 0.0012 0.0019 0.0014 0.0013 0.0012 0.0016 0.0013 9.1E-4
138.486 103.010 0.0038 0.0034 0.0013 0.0015 0.0012 0.0018 7.5E-4 0.0017 8.3E-4 0.0014
142.544 103.010 0.0038 0.0041 0.0015 0.0015 0.0010 0.0012 0.0012 0.0016 0.0013 0.0014
146.721 103.010 0.0046 0.0050 0.0016 0.0018 0.0012 0.0013 0.0016 0.0021 0.0017 0.0014
151.020 103.010 0.0054 0.0062 0.0025 0.0013 0.0013 0.0021 0.0019 0.0025 0.0018 0.0015
155.445 103.011 0.0046 0.0029 0.0018 0.0012 0.0015 0.0017 0.0017 0.0023 0.0015 0.0013
160.000 103.011 0.0042 0.0022 0.0013 0.0012 0.0019 7.4E-4 0.0014 0.0017 0.0014 0.0018
164.688 103.011 0.0042 0.0031 0.0013 0.0012 0.0016 8.8E-4 0.0018 0.0017 0.0013 0.0016
169.514 103.012 0.0053 0.0040 0.0014 0.0015 0.0022 0.0020 0.0029 0.0015 0.0018 0.0014
174.481 103.012 0.0053 0.0029 0.0010 0.0016 0.0022 0.0017 0.0029 0.0012 0.0010 0.0024
179.594 103.012 0.0044 0.0035 6.2E-4 0.0022 0.0016 0.0015 0.0018 8.1E-4 0.0013 0.0019
184.856 103.013 0.0040 0.0058 8.9E-4 0.0021 0.0012 0.0013 0.0018 0.0012 8.9E-4 0.0015
190.273 103.013 0.0042 0.0032 0.0014 0.0017 0.0016 8.9E-4 0.0014 0.0015 9.9E-4 0.0020
195.849 103.013 0.0035 0.0024 0.0014 0.0013 0.0013 0.0015 8.1E-4 0.0011 0.0011 0.0012
201.587 103.014 0.0042 0.0031 0.0020 0.0015 0.0013 0.0020 9.9E-4 0.0014 0.0014 8.7E-4
207.494 103.014 0.0057 0.0046 0.0024 0.0027 0.0017 0.0026 0.0017 0.0017 0.0017 0.0012
213.574 103.014 0.0054 0.0032 0.0023 0.0029 9.5E-4 0.0019 0.0013 0.0017 0.0016 0.0017
219.833 103.015 0.0050 0.0042 0.0024 0.0022 0.0011 0.0011 0.0016 0.0013 0.0019 0.0021
226.274 103.015 0.0050 0.0023 0.0027 0.0018 8.0E-4 0.0012 0.0012 0.0016 0.0020 0.0021
232.905 103.015 0.0048 0.0035 0.0019 0.0024 0.0012 0.0015 0.0014 0.0015 0.0017 0.0018
239.729 103.016 0.0056 0.0023 0.0024 0.0029 0.0023 0.0011 0.0021 0.0020 0.0013 9.0E-4
246.754 103.016 0.0048 0.0049 0.0016 0.0025 0.0014 0.0018 0.0018 0.0016 0.0011 0.0013
253.984 103.016 0.0042 0.0024 0.0014 0.0025 0.0011 0.0014 0.0013 0.0016 9.8E-4 0.0013
261.426 103.016 0.0055 0.0029 0.0025 0.0022 0.0013 0.0024 0.0015 0.0019 0.0021 0.0012
269.087 103.017 0.0054 0.0035 0.0020 9.6E-4 0.0013 0.0029 0.0015 0.0022 0.0021 0.0016
276.972 103.017 0.0050 0.0044 0.0014 8.3E-4 0.0013 0.0020 0.0016 0.0015 0.0011 0.0032
285.088 103.017 0.0052 0.0030 0.0013 0.0014 0.0019 0.0021 0.0016 0.0014 0.0018 0.0028
293.441 103.018 0.0052 0.0032 0.0014 0.0014 0.0026 0.0021 0.0012 0.0011 0.0026 0.0018
302.040 103.018 0.0060 0.0045 0.0018 0.0018 0.0032 0.0017 0.0023 0.0017 0.0023 0.0017
310.890 103.018 0.0056 0.0050 0.0015 0.0017 0.0023 0.0017 0.0026 0.0022 0.0019 0.0017
320.000 103.019 0.0059 0.0036 0.0017 0.0014 0.0021 0.0016 0.0018 0.0032 0.0025 0.0019
329.377 103.019 0.0055 0.0038 0.0014 0.0013 0.0020 0.0017 0.0011 0.0031 0.0023 0.0018
339.028 103.019 0.0057 0.0041 0.0015 0.0016 0.0019 0.0020 0.0016 0.0031 0.0017 0.0022
348.962 103.020 0.0069 0.0056 0.0021 0.0017 0.0015 0.0022 0.0018 0.0036 0.0023 0.0035
359.188 103.020 0.0073 0.0063 0.0024 0.0018 0.0021 0.0018 0.0023 0.0035 0.0025 0.0036
369.713 103.020 0.0074 0.0036 0.0029 0.0021 0.0023 0.0024 0.0024 0.0026 0.0026 0.0033
380.546 103.021 0.0070 0.0036 0.0026 0.0021 0.0022 0.0029 0.0024 0.0022 0.0026 0.0026
391.697 103.021 0.0069 0.0064 0.0027 0.0024 0.0027 0.0027 0.0022 0.0020 0.0028 0.0020
403.175 103.021 0.0066 0.0042 0.0024 0.0019 0.0016 0.0026 0.0025 0.0020 0.0032 0.0022
414.989 103.022 0.0071 0.0048 0.0031 0.0024 0.0018 0.0028 0.0026 0.0025 0.0026 0.0022
427.149 103.022 0.0077 0.0081 0.0026 0.0030 0.0024 0.0024 0.0033 0.0032 0.0019 0.0026
439.665 103.022 0.0072 0.0047 0.0025 0.0029 0.0031 0.0021 0.0024 0.0028 0.0010 0.0028
452.548 103.023 0.0070 0.0087 0.0023 0.0028 0.0034 0.0016 0.0024 0.0026 9.2E-4 0.0030
465.809 103.023 0.0067 0.0053 0.0019 0.0020 0.0030 0.0021 0.0019 0.0029 0.0021 0.0026
479.458 103.023 0.0073 0.0065 0.0022 0.0028 0.0038 0.0016 0.0020 0.0028 0.0023 0.0024
493.507 103.023 0.0077 0.0044 0.0020 0.0031 0.0039 0.0023 0.0023 0.0026 0.0020 0.0030
507.968 103.024 0.0071 0.0028 0.0025 0.0034 0.0027 0.0024 0.0017 0.0023 0.0022 0.0025
522.853 103.024 0.0074 0.0047 0.0033 0.0026 0.0022 0.0025 0.0022 0.0026 0.0024 0.0029
538.174 103.024 0.0079 0.0072 0.0038 0.0029 0.0023 0.0027 0.0026 0.0030 0.0022 0.0027
553.943 103.024 0.0078 0.0046 0.0035 0.0027 0.0027 0.0023 0.0025 0.0033 0.0018 0.0029
570.175 103.025 0.0068 0.0058 0.0026 0.0025 0.0022 0.0016 0.0025 0.0030 0.0017 0.0028
586.883 103.025 0.0077 0.0062 0.0022 0.0027 0.0034 0.0024 0.0025 0.0030 0.0020 0.0032
604.080 103.025 0.0083 0.0054 0.0029 0.0026 0.0033 0.0027 0.0022 0.0034 0.0030 0.0032
621.780 103.025 0.0079 0.0039 0.0028 0.0028 0.0026 0.0022 0.0030 0.0023 0.0036 0.0027
640.000 103.026 0.0084 0.0048 0.0028 0.0027 0.0032 0.0023 0.0032 0.0027 0.0035 0.0031
658.753 103.026 0.0084 0.0051 0.0027 0.0025 0.0032 0.0035 0.0030 0.0026 0.0025 0.0035
678.056 103.026 0.0083 0.0063 0.0030 0.0026 0.0031 0.0037 0.0026 0.0025 0.0028 0.0030
697.925 103.026 0.0082 0.0070 0.0032 0.0029 0.0034 0.0033 0.0027 0.0024 0.0023 0.0029
718.376 103.027 0.0088 0.0055 0.0038 0.0034 0.0031 0.0036 0.0030 0.0029 0.0023 0.0027
739.426 103.027 0.0088 0.0045 0.0039 0.0038 0.0026 0.0037 0.0020 0.0030 0.0026 0.0029
761.093 103.027 0.0087 0.0057 0.0030 0.0027 0.0030 0.0030 0.0032 0.0038 0.0028 0.0032
783.394 103.027 0.010 0.0041 0.0038 0.0028 0.0042 0.0045 0.0035 0.0026 0.0030 0.0034
806.349 103.027 0.0099 0.0070 0.0036 0.0030 0.0037 0.0043 0.0041 0.0023 0.0033 0.0034
829.977 103.027 0.0095 0.0050 0.0029 0.0024 0.0039 0.0033 0.0034 0.0034 0.0039 0.0036
854.297 103.027 0.0094 0.0082 0.0029 0.0027 0.0043 0.0036 0.0028 0.0034 0.0034 0.0033
879.330 103.028 0.0094 0.0079 0.0043 0.0038 0.0029 0.0041 0.0033 0.0024 0.0028 0.0026
905.097 103.028 0.010 0.0066 0.0050 0.0039 0.0034 0.0043 0.0028 0.0032 0.0025 0.0028
931.618 103.028 0.010 0.0097 0.0040 0.0050 0.0041 0.0041 0.0026 0.0031 0.0032 0.0027
958.917 103.028 0.010 0.0055 0.0035 0.0043 0.0044 0.0036 0.0030 0.0036 0.0033 0.0028
987.015 103.028 0.010 0.0074 0.0041 0.0036 0.0039 0.0034 0.0029 0.0039 0.0038 0.0031
1015.937 103.028 0.011 0.014 0.0044 0.0026 0.0035 0.0028 0.0037 0.0042 0.0049 0.0040
1045.706 103.028 0.010 0.0082 0.0034 0.0034 0.0029 0.0028 0.0042 0.0046 0.0040 0.0037
1076.347 103.028 0.011 0.0073 0.0037 0.0035 0.0035 0.0029 0.0040 0.0045 0.0032 0.0042
1107.887 103.028 0.011 0.0057 0.0041 0.0035 0.0037 0.0033 0.0040 0.0042 0.0035 0.0035
1140.350 103.028 0.010 0.0076 0.0039 0.0037 0.0031 0.0033 0.0032 0.0038 0.0042 0.0036
1173.765 103.027 0.011 0.0075 0.0044 0.0042 0.0038 0.0029 0.0032 0.0042 0.0040 0.0037
1208.159 103.027 0.011 0.0064 0.0041 0.0043 0.0036 0.0032 0.0030 0.0037 0.0036 0.0045
1243.561 103.027 0.011 0.0066 0.0045 0.0048 0.0040 0.0036 0.0037 0.0043 0.0032 0.0038
1280.000 103.027 0.012 0.011 0.0041 0.0054 0.0038 0.0028 0.0048 0.0039 0.0036 0.0042
1317.507 103.027 0.011 0.0090 0.0039 0.0037 0.0050 0.0034 0.0042 0.0037 0.0041 0.0037
1356.113 103.026 0.012 0.0068 0.0044 0.0043 0.0049 0.0031 0.0040 0.0049 0.0045 0.0036
1395.850 103.026 0.012 0.0069 0.0049 0.0047 0.0045 0.0035 0.0045 0.0042 0.0041 0.0038
1436.751 103.026 0.012 0.0075 0.0044 0.0038 0.0041 0.0045 0.0046 0.0036 0.0049 0.0036
1478.851 103.025 0.012 0.012 0.0038 0.0041 0.0043 0.0039 0.0044 0.0036 0.0047 0.0041
1522.185 103.025 0.013 0.011 0.0049 0.0052 0.0049 0.0043 0.0051 0.0048 0.0039 0.0046
1566.789 103.024 0.014 0.0098 0.0049 0.0052 0.0050 0.0056 0.0045 0.0049 0.0038 0.0054
1612.699 103.024 0.013 0.0079 0.0048 0.0046 0.0034 0.0053 0.0045 0.0044 0.0050 0.0051
1659.955 103.023 0.013 0.011 0.0045 0.0049 0.0036 0.0048 0.0043 0.0041 0.0058 0.0045
1708.595 103.023 0.013 0.0086 0.0052 0.0049 0.0043 0.0046 0.0052 0.0043 0.0043 0.0045
1758.661 103.022 0.013 0.011 0.0052 0.0053 0.0049 0.0032 0.0046 0.0037 0.0047 0.0048
1810.193 103.022 0.014 0.0084 0.0051 0.0053 0.0053 0.0040 0.0049 0.0047 0.0040 0.0050
1863.236 103.021 0.013 0.0092 0.0052 0.0044 0.0045 0.0040 0.0050 0.0052 0.0041 0.0052
1917.833 103.020 0.015 0.0086 0.0044 0.0057 0.0048 0.0046 0.0054 0.0062 0.0047 0.0056
1974.030 103.019 0.015 0.0083 0.0052 0.0052 0.0053 0.0052 0.0049 0.0062 0.0048 0.0058
2031.873 103.018 0.016 0.0085 0.0052 0.0040 0.0056 0.0059 0.0054 0.0068 0.0061 0.0044
2091.412 103.017 0.015 0.0097 0.0053 0.0047 0.0049 0.0052 0.0057 0.0056 0.0064 0.0051
2152.695 103.016 0.015 0.0099 0.0054 0.0055 0.0056 0.0047 0.0047 0.0059 0.0059 0.0048
2215.774 103.015 0.016 0.010 0.0058 0.0061 0.0051 0.0053 0.0058 0.0058 0.0054 0.0051
2280.701 103.014 0.015 0.013 0.0057 0.0060 0.0050 0.0049 0.0051 0.0052 0.0050 0.0042
2347.530 103.013 0.015 0.012 0.0059 0.0071 0.0048 0.0051 0.0050 0.0057 0.0046 0.0039
2416.318 103.012 0.016 0.014 0.0067 0.0064 0.0058 0.0069 0.0055 0.0054 0.0045 0.0041
