* Distortion data saved by REW V5.20.13
* Dated: Oct 16, 2023 7:02:19 AM
* Source: Universal Audio Thunderbolt, Universal Audio Thunderbolt, 1, volume: no control
* Format: 256k Log Swept Sine, 1 sweep at -40.0 dBFS with no timing reference
* Measurement: Neve 517 48
* Frequency Step: 24 ppo
* Freq (Hz) Fundamental (dB) THD (%) Noise (%) H2 (%) H3 (%) H4 (%) H5 (%) H6 (%) H7 (%) H8 (%) H9 (%)
20.000 113.052 11.9 0.0025 6.45 9.52 1.36 1.83 1.76 0.793 0.914 0.373
20.586 113.095 11.9 0.0026 6.39 9.49 1.41 1.84 1.70 0.769 0.985 0.379
21.189 113.131 11.8 0.0026 6.36 9.43 1.45 1.88 1.65 0.762 1.04 0.393
21.810 113.159 11.8 0.0026 6.35 9.37 1.48 1.93 1.60 0.759 1.08 0.404
22.449 113.177 11.7 0.0026 6.35 9.30 1.50 1.99 1.56 0.762 1.11 0.411
23.107 113.189 11.7 0.0016 6.38 9.23 1.52 2.05 1.53 0.767 1.14 0.417
23.784 113.193 11.7 0.0016 6.41 9.17 1.54 2.10 1.50 0.774 1.16 0.421
24.481 113.194 11.7 0.0016 6.44 9.11 1.55 2.14 1.48 0.781 1.17 0.424
25.198 113.192 11.6 0.0016 6.49 9.05 1.57 2.18 1.47 0.787 1.18 0.426
25.937 113.189 11.6 0.0014 6.52 8.99 1.58 2.21 1.46 0.793 1.18 0.427
26.697 113.187 11.6 0.0014 6.55 8.95 1.58 2.23 1.46 0.796 1.18 0.427
27.479 113.187 11.6 0.0014 6.56 8.90 1.59 2.23 1.46 0.799 1.18 0.426
28.284 113.187 11.6 0.0016 6.58 8.87 1.60 2.24 1.46 0.802 1.18 0.423
29.113 113.188 11.6 0.0016 6.59 8.85 1.60 2.23 1.47 0.804 1.18 0.419
29.966 113.189 11.6 0.0016 6.60 8.83 1.61 2.22 1.47 0.807 1.18 0.414
30.844 113.190 11.6 0.0016 6.62 8.82 1.61 2.21 1.48 0.808 1.18 0.408
31.748 113.189 11.6 0.0016 6.64 8.81 1.62 2.21 1.48 0.809 1.18 0.403
32.678 113.189 11.6 0.0016 6.66 8.80 1.62 2.20 1.48 0.810 1.18 0.398
33.636 113.189 11.6 0.0016 6.68 8.80 1.63 2.19 1.49 0.811 1.18 0.394
34.621 113.189 11.6 0.0017 6.70 8.80 1.63 2.19 1.49 0.812 1.19 0.392
35.636 113.190 11.6 0.0017 6.72 8.79 1.64 2.19 1.49 0.813 1.19 0.390
36.680 113.190 11.6 0.0021 6.73 8.79 1.64 2.19 1.49 0.814 1.18 0.389
37.755 113.190 11.6 0.0021 6.73 8.78 1.64 2.18 1.49 0.814 1.18 0.388
38.861 113.191 11.6 0.0021 6.73 8.77 1.64 2.18 1.49 0.814 1.18 0.387
40.000 113.191 11.6 0.0032 6.73 8.77 1.64 2.18 1.49 0.813 1.18 0.387
41.172 113.191 11.6 0.0032 6.73 8.76 1.64 2.18 1.49 0.812 1.18 0.386
42.379 113.192 11.6 0.0029 6.73 8.76 1.64 2.18 1.49 0.811 1.18 0.386
43.620 113.192 11.6 0.0029 6.73 8.76 1.64 2.18 1.49 0.811 1.19 0.385
44.898 113.192 11.6 0.0084 6.72 8.76 1.64 2.18 1.49 0.810 1.19 0.386
46.214 113.193 11.6 0.0084 6.72 8.76 1.64 2.18 1.49 0.810 1.18 0.387
47.568 113.194 11.6 0.047 6.72 8.75 1.64 2.19 1.49 0.809 1.18 0.387
48.962 113.195 11.6 0.047 6.71 8.75 1.64 2.19 1.49 0.808 1.18 0.389
50.397 113.195 11.6 0.054 6.70 8.75 1.64 2.19 1.49 0.807 1.18 0.390
51.874 113.194 11.5 0.054 6.70 8.75 1.64 2.19 1.49 0.807 1.18 0.391
53.394 113.195 11.5 0.015 6.69 8.75 1.64 2.19 1.48 0.806 1.18 0.392
54.958 113.195 11.5 0.015 6.68 8.74 1.64 2.20 1.48 0.805 1.19 0.393
56.569 113.195 11.5 0.0041 6.67 8.74 1.64 2.20 1.48 0.804 1.19 0.395
58.226 113.196 11.5 0.0026 6.67 8.74 1.64 2.20 1.47 0.803 1.19 0.398
59.932 113.196 11.5 0.0026 6.66 8.74 1.64 2.20 1.47 0.802 1.19 0.400
61.688 113.197 11.5 0.0013 6.65 8.74 1.64 2.21 1.47 0.803 1.19 0.401
63.496 113.197 11.5 0.0021 6.64 8.74 1.64 2.21 1.47 0.802 1.19 0.403
65.357 113.197 11.5 0.0021 6.64 8.74 1.64 2.21 1.47 0.801 1.19 0.405
67.272 113.197 11.5 0.0028 6.63 8.74 1.64 2.21 1.46 0.801 1.19 0.406
69.243 113.197 11.5 0.0025 6.62 8.74 1.64 2.21 1.46 0.800 1.19 0.408
71.272 113.196 11.5 0.0025 6.62 8.74 1.63 2.22 1.46 0.800 1.19 0.411
73.360 113.196 11.5 0.0018 6.61 8.74 1.63 2.22 1.46 0.799 1.19 0.412
75.510 113.196 11.5 0.0025 6.61 8.74 1.63 2.22 1.46 0.798 1.19 0.414
77.723 113.196 11.5 0.0026 6.61 8.74 1.63 2.22 1.46 0.796 1.19 0.416
80.000 113.195 11.5 0.0028 6.60 8.74 1.64 2.22 1.46 0.796 1.19 0.418
82.344 113.195 11.5 0.0039 6.59 8.73 1.64 2.22 1.45 0.796 1.19 0.420
84.757 113.195 11.5 0.0039 6.59 8.73 1.63 2.23 1.45 0.795 1.20 0.422
87.241 113.195 11.5 0.0030 6.58 8.73 1.63 2.23 1.45 0.795 1.20 0.423
89.797 113.195 11.5 0.0028 6.58 8.73 1.63 2.23 1.45 0.794 1.20 0.425
92.428 113.195 11.5 0.0024 6.57 8.72 1.63 2.24 1.45 0.794 1.20 0.427
95.137 113.195 11.5 0.0033 6.56 8.72 1.63 2.24 1.45 0.793 1.20 0.427
97.924 113.195 11.4 0.0038 6.56 8.72 1.63 2.24 1.44 0.792 1.20 0.428
100.794 113.195 11.4 0.0082 6.55 8.71 1.63 2.25 1.44 0.791 1.20 0.430
103.747 113.195 11.4 0.0026 6.55 8.71 1.63 2.25 1.44 0.788 1.20 0.433
106.787 113.195 11.4 0.0025 6.54 8.70 1.63 2.25 1.44 0.787 1.20 0.435
109.916 113.195 11.4 0.0031 6.54 8.70 1.63 2.25 1.44 0.785 1.20 0.436
113.137 113.195 11.4 0.0029 6.54 8.70 1.63 2.26 1.44 0.784 1.20 0.437
116.452 113.195 11.4 0.0024 6.53 8.70 1.63 2.26 1.44 0.783 1.20 0.438
119.865 113.195 11.4 0.0035 6.53 8.70 1.63 2.26 1.43 0.784 1.20 0.439
123.377 113.196 11.4 0.0025 6.53 8.70 1.63 2.26 1.43 0.785 1.20 0.439
126.992 113.196 11.4 0.0032 6.53 8.70 1.63 2.26 1.43 0.786 1.20 0.439
130.713 113.196 11.4 0.0029 6.52 8.70 1.63 2.26 1.43 0.786 1.20 0.439
134.543 113.196 11.4 0.0031 6.52 8.71 1.63 2.26 1.43 0.785 1.20 0.439
138.486 113.197 11.4 0.0028 6.52 8.71 1.63 2.26 1.43 0.784 1.20 0.439
142.544 113.197 11.4 0.0023 6.52 8.71 1.63 2.26 1.43 0.784 1.20 0.438
146.721 113.197 11.4 0.012 6.52 8.72 1.63 2.25 1.43 0.785 1.20 0.436
151.020 113.198 11.4 0.015 6.52 8.72 1.63 2.25 1.44 0.786 1.20 0.435
155.445 113.198 11.4 0.0042 6.52 8.72 1.63 2.25 1.44 0.787 1.20 0.435
160.000 113.198 11.4 0.0031 6.52 8.72 1.63 2.25 1.44 0.787 1.20 0.436
164.688 113.198 11.4 0.0033 6.51 8.72 1.63 2.25 1.44 0.785 1.20 0.438
169.514 113.198 11.4 0.0025 6.52 8.72 1.63 2.25 1.44 0.784 1.20 0.438
174.481 113.199 11.4 0.0026 6.51 8.72 1.63 2.25 1.44 0.783 1.20 0.438
179.594 113.199 11.4 0.0028 6.52 8.72 1.63 2.25 1.44 0.782 1.20 0.439
184.856 113.199 11.4 0.0027 6.52 8.72 1.63 2.25 1.44 0.782 1.20 0.439
190.273 113.199 11.4 0.0044 6.52 8.72 1.63 2.26 1.44 0.784 1.20 0.438
195.849 113.199 11.4 0.0034 6.52 8.72 1.63 2.26 1.44 0.786 1.20 0.437
201.587 113.200 11.4 0.0052 6.52 8.72 1.63 2.26 1.44 0.787 1.20 0.436
207.494 113.200 11.4 0.0040 6.51 8.72 1.63 2.26 1.44 0.786 1.20 0.436
213.574 113.200 11.4 0.0041 6.51 8.72 1.63 2.26 1.44 0.785 1.20 0.437
219.833 113.200 11.4 0.0037 6.52 8.73 1.63 2.26 1.44 0.785 1.20 0.438
226.274 113.200 11.4 0.0030 6.52 8.72 1.63 2.26 1.44 0.785 1.20 0.438
232.905 113.200 11.4 0.0033 6.52 8.72 1.63 2.26 1.44 0.784 1.20 0.438
239.729 113.200 11.4 0.0035 6.52 8.71 1.63 2.26 1.44 0.782 1.20 0.440
246.754 113.199 11.4 0.0087 6.52 8.70 1.64 2.26 1.44 0.781 1.20 0.440
253.984 113.198 11.4 0.0090 6.53 8.69 1.64 2.26 1.44 0.781 1.21 0.437
261.426 113.198 11.4 0.0057 6.53 8.68 1.64 2.26 1.44 0.780 1.21 0.436
269.087 113.197 11.4 0.0031 6.53 8.67 1.65 2.26 1.43 0.778 1.21 0.436
276.972 113.197 11.4 0.0035 6.54 8.67 1.65 2.26 1.43 0.777 1.21 0.438
285.088 113.197 11.4 0.0025 6.53 8.67 1.65 2.25 1.43 0.776 1.21 0.439
293.441 113.197 11.4 0.0024 6.54 8.67 1.65 2.25 1.43 0.776 1.21 0.439
302.040 113.197 11.4 0.0054 6.54 8.67 1.65 2.25 1.42 0.776 1.21 0.439
310.890 113.196 11.4 0.0039 6.54 8.67 1.65 2.25 1.42 0.776 1.21 0.438
320.000 113.196 11.4 0.0027 6.54 8.66 1.66 2.25 1.42 0.777 1.21 0.438
329.377 113.195 11.4 0.0038 6.54 8.66 1.66 2.25 1.42 0.778 1.21 0.438
339.028 113.195 11.4 0.0048 6.55 8.65 1.66 2.25 1.42 0.777 1.21 0.439
348.962 113.196 11.4 0.019 6.55 8.65 1.66 2.25 1.42 0.777 1.21 0.436
359.188 113.196 11.4 0.0028 6.54 8.66 1.66 2.25 1.42 0.776 1.21 0.436
369.713 113.197 11.4 0.0032 6.55 8.67 1.66 2.25 1.43 0.775 1.21 0.436
380.546 113.198 11.4 0.0045 6.55 8.67 1.65 2.25 1.43 0.778 1.21 0.436
391.697 113.198 11.4 0.0053 6.55 8.68 1.65 2.25 1.44 0.782 1.21 0.435
403.175 113.199 11.4 0.0023 6.55 8.68 1.65 2.26 1.44 0.783 1.21 0.432
414.989 113.200 11.4 0.0039 6.55 8.68 1.64 2.26 1.45 0.784 1.21 0.433
427.149 113.201 11.4 0.0042 6.55 8.70 1.63 2.26 1.45 0.783 1.21 0.434
439.665 113.203 11.4 0.0045 6.55 8.72 1.63 2.25 1.45 0.784 1.20 0.433
452.548 113.204 11.5 0.0049 6.55 8.74 1.62 2.24 1.46 0.790 1.20 0.426
465.809 113.204 11.5 0.0032 6.55 8.75 1.62 2.24 1.46 0.793 1.20 0.425
479.458 113.204 11.5 0.0042 6.55 8.74 1.62 2.25 1.46 0.792 1.20 0.427
493.507 113.204 11.5 0.0023 6.55 8.74 1.62 2.25 1.46 0.789 1.20 0.429
507.968 113.203 11.5 0.0062 6.55 8.74 1.62 2.25 1.46 0.790 1.21 0.427
522.853 113.203 11.5 0.0051 6.55 8.73 1.63 2.25 1.46 0.791 1.21 0.430
538.174 113.202 11.4 0.0054 6.56 8.72 1.63 2.25 1.46 0.787 1.21 0.432
553.943 113.201 11.4 0.0061 6.56 8.70 1.63 2.26 1.45 0.783 1.21 0.432
570.175 113.201 11.4 0.0061 6.56 8.69 1.63 2.26 1.45 0.781 1.21 0.434
586.883 113.201 11.4 0.0037 6.56 8.70 1.64 2.25 1.45 0.786 1.21 0.431
604.080 113.202 11.5 0.0029 6.56 8.72 1.64 2.25 1.45 0.789 1.21 0.427
621.780 113.202 11.5 0.0042 6.56 8.72 1.64 2.24 1.46 0.785 1.21 0.430
640.000 113.202 11.5 0.0053 6.56 8.72 1.64 2.24 1.46 0.784 1.21 0.429
658.753 113.201 11.4 0.0059 6.57 8.71 1.64 2.24 1.45 0.789 1.21 0.427
678.056 113.200 11.4 0.0078 6.57 8.70 1.64 2.25 1.45 0.786 1.21 0.430
697.925 113.198 11.4 0.0054 6.57 8.67 1.65 2.25 1.45 0.779 1.22 0.432
718.376 113.196 11.4 0.0039 6.57 8.64 1.67 2.25 1.44 0.777 1.22 0.433
739.426 113.194 11.4 0.0060 6.57 8.63 1.67 2.25 1.43 0.773 1.22 0.435
761.093 113.193 11.4 0.0046 6.57 8.63 1.68 2.24 1.42 0.772 1.22 0.434
783.394 113.193 11.4 0.0044 6.58 8.62 1.68 2.24 1.42 0.774 1.22 0.436
806.349 113.193 11.4 0.0046 6.58 8.62 1.68 2.24 1.42 0.771 1.22 0.434
829.977 113.195 11.4 0.0052 6.58 8.63 1.68 2.24 1.43 0.772 1.22 0.434
854.297 113.197 11.4 0.0050 6.58 8.64 1.67 2.25 1.44 0.778 1.22 0.432
879.330 113.200 11.4 0.0052 6.58 8.67 1.65 2.25 1.45 0.781 1.21 0.430
905.097 113.203 11.5 0.0048 6.58 8.73 1.63 2.24 1.46 0.788 1.21 0.424
931.618 113.205 11.5 0.0069 6.58 8.75 1.63 2.24 1.48 0.794 1.20 0.421
958.917 113.206 11.5 0.0053 6.58 8.76 1.62 2.24 1.48 0.794 1.20 0.422
987.015 113.205 11.5 0.0068 6.59 8.75 1.62 2.24 1.47 0.794 1.20 0.422
1015.937 113.204 11.5 0.0065 6.59 8.72 1.62 2.25 1.47 0.789 1.21 0.425
1045.706 113.204 11.5 0.0059 6.59 8.73 1.63 2.25 1.47 0.792 1.21 0.423
1076.347 113.204 11.5 0.0090 6.59 8.75 1.63 2.24 1.47 0.790 1.20 0.424
1107.887 113.203 11.5 0.0078 6.58 8.73 1.63 2.24 1.46 0.791 1.21 0.424
1140.350 113.199 11.4 0.0054 6.58 8.69 1.65 2.25 1.46 0.784 1.21 0.429
1173.765 113.195 11.4 0.0059 6.58 8.64 1.67 2.25 1.44 0.775 1.22 0.433
1208.159 113.193 11.4 0.0068 6.59 8.63 1.68 2.25 1.43 0.772 1.22 0.436
1243.561 113.192 11.4 0.0062 6.59 8.62 1.69 2.24 1.42 0.772 1.22 0.436
1280.000 113.194 11.4 0.0085 6.59 8.63 1.68 2.24 1.43 0.773 1.22 0.435
1317.507 113.199 11.4 0.0052 6.60 8.66 1.66 2.26 1.45 0.781 1.22 0.432
1356.113 113.205 11.5 0.0076 6.60 8.74 1.63 2.24 1.47 0.790 1.21 0.425
1395.850 113.209 11.5 0.0058 6.60 8.80 1.61 2.24 1.49 0.801 1.20 0.417
1436.751 113.209 11.5 0.0060 6.60 8.80 1.60 2.24 1.49 0.802 1.19 0.418
1478.851 113.209 11.5 0.0056 6.60 8.78 1.60 2.25 1.49 0.797 1.20 0.422
1522.185 113.209 11.5 0.0077 6.60 8.80 1.61 2.24 1.49 0.799 1.20 0.420
1566.789 113.206 11.5 0.0058 6.60 8.77 1.62 2.24 1.48 0.797 1.20 0.422
1612.699 113.198 11.5 0.0083 6.60 8.69 1.65 2.25 1.46 0.783 1.21 0.429
1659.955 113.194 11.4 0.0074 6.60 8.64 1.68 2.25 1.43 0.774 1.22 0.434
1708.595 113.194 11.4 0.0062 6.61 8.64 1.69 2.24 1.42 0.774 1.22 0.433
1758.661 113.199 11.4 0.0081 6.61 8.66 1.67 2.25 1.44 0.779 1.21 0.430
1810.193 113.208 11.5 0.0072 6.61 8.75 1.62 2.25 1.48 0.792 1.20 0.420
1863.236 113.213 11.6 0.0095 6.62 8.84 1.59 2.24 1.51 0.807 1.19 0.407
1917.833 113.213 11.6 0.0067 6.62 8.83 1.58 2.25 1.51 0.807 1.19 0.401
1974.030 113.213 11.6 0.0055 6.61 8.83 1.59 2.24 1.50 0.805 1.19 0.384
2031.873 113.206 11.5 0.0073 6.62 8.77 1.62 2.25 1.48 0.798 1.20 0.358
2091.412 113.196 11.4 0.0086 6.61 8.65 1.67 2.26 1.44 0.778 1.20 0.323
2152.695 113.194 11.4 0.0094 6.62 8.63 1.70 2.24 1.42 0.773 1.18 0.266
2215.774 113.200 11.4 0.0064 6.62 8.65 1.68 2.26 1.44 0.778 1.13 0.200
2280.701 113.211 11.5 0.0081 6.62 8.78 1.62 2.25 1.48 0.798 1.03 0.139
