* Distortion data saved by REW V5.20.13
* Dated: Sep 29, 2023 7:39:59 PM
* Source: ASIO ASIO Lynx, Aurora(n) Record 26
* Format: 512k Log Swept Sine, 1 sweep at -12.0 dBFS with no timing reference
* Measurement: tegeler -12dbfs九月 30
* Frequency Step: 24 ppo
* Freq (Hz) Fundamental (dB) THD (%) Noise (%) H2 (%) H3 (%) H4 (%) H5 (%) H6 (%) H7 (%) H8 (%) H9 (%)
20.000 102.020 16.9 7.9E-5 0.603 16.2 0.590 4.63 0.262 1.33 0.117 0.583
20.586 102.137 15.5 7.8E-5 0.646 14.9 0.550 4.21 0.238 1.18 0.102 0.475
21.189 102.239 14.2 7.7E-5 0.687 13.6 0.506 3.79 0.213 1.06 0.088 0.373
21.810 102.325 12.8 7.6E-5 0.724 12.3 0.460 3.38 0.189 0.962 0.075 0.282
22.449 102.398 11.6 8.9E-5 0.756 11.1 0.411 2.97 0.165 0.873 0.064 0.208
23.107 102.459 10.4 8.8E-5 0.784 9.96 0.363 2.58 0.142 0.792 0.055 0.155
23.784 102.511 9.25 8.8E-5 0.808 8.91 0.318 2.22 0.121 0.716 0.048 0.123
24.481 102.555 8.26 8.7E-5 0.827 7.96 0.276 1.90 0.103 0.642 0.042 0.108
25.198 102.592 7.38 7.3E-5 0.843 7.13 0.241 1.61 0.087 0.569 0.037 0.102
25.937 102.625 6.62 7.3E-5 0.855 6.40 0.211 1.35 0.073 0.500 0.032 0.099
26.697 102.653 5.96 7.3E-5 0.864 5.77 0.185 1.14 0.061 0.435 0.027 0.095
27.479 102.678 5.41 7.2E-5 0.872 5.24 0.163 0.955 0.051 0.374 0.024 0.089
28.284 102.700 4.94 7.8E-5 0.880 4.78 0.144 0.806 0.042 0.320 0.021 0.082
29.113 102.719 4.54 7.7E-5 0.888 4.39 0.130 0.684 0.035 0.273 0.018 0.074
29.966 102.735 4.20 7.7E-5 0.893 4.05 0.118 0.584 0.029 0.234 0.014 0.066
30.844 102.750 3.91 7.1E-5 0.897 3.76 0.107 0.504 0.025 0.199 0.011 0.058
31.748 102.763 3.65 7.1E-5 0.902 3.51 0.097 0.438 0.022 0.169 0.0085 0.051
32.678 102.775 3.43 7.1E-5 0.906 3.28 0.089 0.386 0.019 0.144 0.0074 0.045
33.636 102.786 3.24 7.1E-5 0.909 3.08 0.082 0.344 0.017 0.123 0.0062 0.040
34.621 102.797 3.06 6.7E-5 0.910 2.90 0.075 0.308 0.017 0.107 0.0046 0.035
35.636 102.808 2.90 6.7E-5 0.911 2.74 0.068 0.278 0.016 0.095 0.0035 0.030
36.680 102.818 2.76 7.2E-5 0.914 2.59 0.062 0.253 0.015 0.084 0.0028 0.027
37.755 102.829 2.63 7.1E-5 0.916 2.45 0.059 0.232 0.014 0.075 0.0026 0.023
38.861 102.839 2.51 7.1E-5 0.920 2.32 0.055 0.214 0.012 0.067 0.0024 0.021
40.000 102.849 2.40 7.4E-5 0.924 2.21 0.052 0.198 0.011 0.059 0.0023 0.019
41.172 102.859 2.30 7.4E-5 0.926 2.09 0.049 0.185 0.010 0.053 0.0021 0.017
42.379 102.868 2.20 7.4E-5 0.928 1.99 0.047 0.173 0.0086 0.048 0.0020 0.016
43.620 102.878 2.11 8.1E-5 0.931 1.89 0.044 0.162 0.0080 0.043 0.0016 0.015
44.898 102.888 2.03 8.1E-5 0.932 1.80 0.042 0.152 0.0080 0.039 9.3E-4 0.014
46.214 102.898 1.95 2.0E-4 0.933 1.71 0.041 0.144 0.0079 0.036 4.8E-4 0.013
47.568 102.908 1.88 2.0E-4 0.934 1.63 0.038 0.137 0.0076 0.034 6.6E-4 0.012
48.962 102.918 1.81 4.7E-4 0.934 1.55 0.035 0.131 0.0072 0.031 0.0010 0.011
50.397 102.928 1.75 4.7E-4 0.934 1.48 0.032 0.125 0.0074 0.029 9.8E-4 0.010
51.874 102.938 1.69 3.1E-4 0.935 1.41 0.030 0.119 0.0070 0.027 9.2E-4 0.0096
53.394 102.948 1.64 3.1E-4 0.936 1.34 0.028 0.114 0.0068 0.026 9.7E-4 0.0088
54.958 102.958 1.59 5.9E-5 0.938 1.28 0.027 0.108 0.0064 0.025 0.0010 0.0078
56.569 102.968 1.55 5.9E-5 0.939 1.23 0.025 0.103 0.0060 0.023 0.0014 0.0070
58.226 102.978 1.51 9.5E-5 0.939 1.18 0.023 0.099 0.0056 0.023 0.0015 0.0067
59.932 102.987 1.47 9.4E-5 0.940 1.12 0.022 0.095 0.0052 0.021 0.0011 0.0065
61.688 102.997 1.43 1.1E-4 0.941 1.08 0.021 0.091 0.0051 0.021 7.7E-4 0.0062
63.496 103.007 1.40 1.6E-4 0.940 1.03 0.020 0.087 0.0052 0.020 5.9E-4 0.0056
65.357 103.017 1.37 1.6E-4 0.938 0.989 0.019 0.083 0.0054 0.020 4.3E-4 0.0052
67.272 103.027 1.34 1.2E-4 0.936 0.948 0.018 0.080 0.0048 0.019 1.7E-4 0.0048
69.243 103.037 1.31 7.9E-5 0.936 0.911 0.018 0.078 0.0044 0.018 3.3E-4 0.0042
71.272 103.047 1.28 7.9E-5 0.935 0.875 0.017 0.076 0.0039 0.017 4.5E-4 0.0037
73.360 103.057 1.26 1.1E-4 0.934 0.841 0.017 0.073 0.0035 0.016 6.5E-4 0.0032
75.510 103.067 1.24 1.2E-4 0.932 0.808 0.016 0.071 0.0034 0.015 9.5E-4 0.0030
77.723 103.076 1.22 1.3E-4 0.932 0.777 0.016 0.068 0.0031 0.014 7.8E-4 0.0029
80.000 103.086 1.20 1.3E-4 0.931 0.747 0.015 0.066 0.0030 0.014 6.5E-4 0.0026
82.344 103.096 1.18 2.0E-4 0.931 0.719 0.014 0.064 0.0027 0.013 8.2E-4 0.0023
84.757 103.106 1.16 2.3E-4 0.932 0.694 0.014 0.062 0.0022 0.013 5.8E-4 0.0023
87.241 103.116 1.15 1.5E-4 0.932 0.670 0.014 0.059 0.0018 0.012 6.2E-4 0.0023
89.797 103.125 1.14 1.3E-4 0.931 0.647 0.014 0.057 0.0020 0.012 4.7E-4 0.0023
92.428 103.135 1.12 1.4E-4 0.930 0.626 0.013 0.054 0.0022 0.011 5.0E-4 0.0020
95.137 103.145 1.11 1.4E-4 0.929 0.605 0.013 0.052 0.0019 0.010 5.5E-4 0.0020
97.924 103.154 1.10 2.8E-4 0.928 0.584 0.013 0.051 0.0013 0.0099 6.0E-4 0.0018
100.794 103.164 1.09 3.4E-4 0.927 0.565 0.012 0.049 0.0012 0.0091 4.7E-4 0.0018
103.747 103.174 1.08 1.9E-4 0.926 0.545 0.011 0.047 9.4E-4 0.0084 5.5E-4 0.0017
106.787 103.183 1.07 1.2E-4 0.925 0.527 0.011 0.045 5.9E-4 0.0081 4.3E-4 0.0016
109.916 103.193 1.06 1.5E-4 0.924 0.510 0.011 0.043 5.1E-4 0.0080 4.1E-4 0.0015
113.137 103.202 1.05 1.6E-4 0.922 0.493 0.010 0.041 3.9E-4 0.0076 4.2E-4 0.0014
116.452 103.212 1.04 1.1E-4 0.921 0.477 0.010 0.040 5.5E-4 0.0073 3.1E-4 0.0011
119.865 103.221 1.03 1.2E-4 0.920 0.462 0.0098 0.039 5.6E-4 0.0069 3.3E-4 9.9E-4
123.377 103.230 1.02 1.2E-4 0.919 0.447 0.0095 0.037 6.4E-4 0.0062 2.5E-4 0.0010
126.992 103.240 1.02 1.6E-4 0.920 0.433 0.0091 0.036 5.9E-4 0.0057 1.9E-4 9.1E-4
130.713 103.249 1.01 1.9E-4 0.920 0.419 0.0086 0.035 6.6E-4 0.0055 1.2E-4 6.5E-4
134.543 103.258 1.01 1.7E-4 0.919 0.405 0.0082 0.033 8.0E-4 0.0054 1.8E-4 6.1E-4
138.486 103.267 1.000 1.0E-4 0.919 0.392 0.0078 0.032 6.5E-4 0.0051 2.6E-4 6.1E-4
142.544 103.276 0.994 1.4E-4 0.918 0.379 0.0075 0.030 4.1E-4 0.0047 3.6E-4 6.0E-4
146.721 103.285 0.988 4.8E-4 0.917 0.367 0.0071 0.029 2.2E-4 0.0045 4.7E-4 5.4E-4
151.020 103.294 0.984 8.1E-4 0.917 0.356 0.0066 0.028 2.1E-4 0.0043 3.5E-4 4.2E-4
155.445 103.303 0.979 2.5E-4 0.916 0.344 0.0065 0.027 1.5E-4 0.0039 3.3E-4 3.3E-4
160.000 103.312 0.974 1.4E-4 0.915 0.333 0.0064 0.025 2.6E-4 0.0037 3.5E-4 1.7E-4
164.688 103.320 0.970 1.8E-4 0.915 0.322 0.0061 0.024 3.3E-4 0.0036 3.1E-4 1.8E-4
169.514 103.329 0.966 1.6E-4 0.914 0.311 0.0059 0.023 1.7E-4 0.0034 3.8E-4 1.7E-4
174.481 103.338 0.962 1.1E-4 0.913 0.301 0.0057 0.022 1.9E-4 0.0034 4.2E-4 2.3E-4
179.594 103.346 0.958 2.0E-4 0.912 0.292 0.0054 0.021 2.7E-4 0.0032 3.8E-4 2.7E-4
184.856 103.355 0.954 2.0E-4 0.911 0.283 0.0053 0.019 3.6E-4 0.0029 3.6E-4 2.8E-4
190.273 103.363 0.950 1.9E-4 0.909 0.273 0.0051 0.019 3.1E-4 0.0026 4.4E-4 2.7E-4
195.849 103.372 0.946 1.8E-4 0.909 0.264 0.0048 0.018 2.8E-4 0.0024 3.1E-4 1.7E-4
201.587 103.380 0.943 2.9E-4 0.908 0.255 0.0047 0.017 3.2E-4 0.0022 1.8E-4 1.5E-4
207.494 103.388 0.941 1.6E-4 0.907 0.247 0.0044 0.016 2.8E-4 0.0021 2.8E-4 1.2E-4
213.574 103.396 0.938 2.6E-4 0.907 0.239 0.0042 0.015 2.6E-4 0.0019 2.8E-4 2.1E-4
219.833 103.404 0.935 2.2E-4 0.906 0.230 0.0040 0.014 1.9E-4 0.0019 3.4E-4 2.2E-4
226.274 103.412 0.932 1.5E-4 0.905 0.222 0.0037 0.013 2.6E-4 0.0018 1.9E-4 1.8E-4
232.905 103.420 0.929 2.6E-4 0.904 0.215 0.0034 0.013 3.6E-4 0.0016 1.5E-4 1.9E-4
239.729 103.428 0.927 1.7E-4 0.903 0.207 0.0032 0.012 4.5E-4 0.0014 1.4E-4 1.9E-4
246.754 103.436 0.924 3.7E-4 0.902 0.200 0.0028 0.011 5.8E-4 0.0012 1.9E-4 2.1E-4
253.984 103.444 0.922 2.4E-4 0.901 0.194 0.0026 0.011 5.5E-4 0.0011 3.0E-4 3.1E-4
261.426 103.451 0.920 1.9E-4 0.901 0.187 0.0025 0.010 5.4E-4 0.0010 3.1E-4 3.2E-4
269.087 103.459 0.918 1.9E-4 0.900 0.180 0.0024 0.0097 6.0E-4 9.3E-4 3.9E-4 3.1E-4
276.972 103.466 0.916 2.0E-4 0.899 0.174 0.0023 0.0090 6.0E-4 8.2E-4 4.0E-4 3.8E-4
285.088 103.474 0.914 1.9E-4 0.898 0.168 0.0021 0.0082 7.1E-4 7.0E-4 3.9E-4 4.0E-4
293.441 103.481 0.912 1.8E-4 0.898 0.162 0.0019 0.0076 7.8E-4 5.3E-4 3.4E-4 3.6E-4
302.040 103.488 0.910 1.8E-4 0.897 0.157 0.0019 0.0072 7.5E-4 4.6E-4 3.3E-4 3.7E-4
310.890 103.496 0.909 2.3E-4 0.896 0.151 0.0020 0.0067 7.1E-4 4.2E-4 3.4E-4 4.5E-4
320.000 103.503 0.907 2.7E-4 0.895 0.145 0.0021 0.0064 6.9E-4 4.2E-4 2.7E-4 4.6E-4
329.377 103.510 0.906 2.2E-4 0.895 0.140 0.0021 0.0059 7.0E-4 3.6E-4 2.7E-4 4.4E-4
339.028 103.517 0.904 1.2E-4 0.894 0.135 0.0021 0.0056 6.7E-4 2.4E-4 1.8E-4 3.9E-4
348.962 103.523 0.903 4.4E-4 0.893 0.130 0.0023 0.0052 5.9E-4 2.4E-4 1.9E-4 3.5E-4
359.188 103.530 0.901 2.8E-4 0.893 0.126 0.0023 0.0049 5.4E-4 2.9E-4 1.7E-4 3.0E-4
369.713 103.537 0.900 4.0E-4 0.892 0.121 0.0023 0.0046 5.1E-4 2.8E-4 1.9E-4 2.7E-4
380.546 103.544 0.899 2.9E-4 0.891 0.117 0.0023 0.0042 5.3E-4 4.2E-4 1.4E-4 1.8E-4
391.697 103.550 0.898 1.8E-4 0.891 0.113 0.0024 0.0039 5.2E-4 3.7E-4 1.4E-4 1.9E-4
403.175 103.557 0.896 2.1E-4 0.890 0.109 0.0023 0.0035 4.8E-4 3.6E-4 1.7E-4 2.7E-4
414.989 103.563 0.895 2.2E-4 0.889 0.105 0.0023 0.0032 4.2E-4 2.8E-4 1.6E-4 3.2E-4
427.149 103.569 0.894 3.1E-4 0.888 0.101 0.0024 0.0030 2.8E-4 3.5E-4 1.8E-4 2.6E-4
439.665 103.576 0.893 3.9E-4 0.888 0.097 0.0024 0.0027 2.3E-4 2.6E-4 2.2E-4 2.3E-4
452.548 103.582 0.892 9.3E-4 0.887 0.094 0.0023 0.0026 1.7E-4 2.5E-4 1.7E-4 1.7E-4
465.809 103.588 0.891 2.2E-4 0.886 0.091 0.0024 0.0024 1.6E-4 2.8E-4 2.2E-4 2.2E-4
479.458 103.594 0.890 2.9E-4 0.886 0.087 0.0023 0.0022 2.2E-4 4.0E-4 2.5E-4 1.8E-4
493.507 103.600 0.889 3.1E-4 0.885 0.084 0.0023 0.0020 2.6E-4 4.0E-4 3.0E-4 1.6E-4
507.968 103.606 0.888 4.1E-4 0.885 0.081 0.0024 0.0019 2.4E-4 3.7E-4 2.4E-4 1.3E-4
522.853 103.611 0.887 4.4E-4 0.884 0.078 0.0025 0.0017 2.9E-4 5.0E-4 2.0E-4 1.3E-4
538.174 103.617 0.887 2.8E-4 0.883 0.076 0.0025 0.0017 3.2E-4 5.9E-4 1.9E-4 1.4E-4
553.943 103.623 0.886 7.5E-4 0.883 0.073 0.0024 0.0015 2.9E-4 5.9E-4 1.6E-4 1.7E-4
570.175 103.628 0.885 2.7E-4 0.882 0.071 0.0023 0.0014 2.6E-4 6.3E-4 1.4E-4 1.8E-4
586.883 103.634 0.884 2.4E-4 0.882 0.068 0.0024 0.0013 2.3E-4 6.9E-4 1.8E-4 1.7E-4
604.080 103.639 0.884 2.4E-4 0.881 0.066 0.0024 0.0013 2.5E-4 6.3E-4 2.1E-4 2.4E-4
621.780 103.645 0.883 3.3E-4 0.881 0.064 0.0024 0.0013 2.5E-4 6.7E-4 2.2E-4 2.1E-4
640.000 103.650 0.882 2.3E-4 0.880 0.062 0.0024 0.0013 2.4E-4 6.6E-4 2.1E-4 2.0E-4
658.753 103.655 0.882 3.6E-4 0.880 0.060 0.0023 0.0012 1.8E-4 7.3E-4 2.0E-4 2.1E-4
678.056 103.660 0.881 3.4E-4 0.879 0.058 0.0023 0.0012 1.7E-4 6.9E-4 1.9E-4 2.1E-4
697.925 103.666 0.880 4.7E-4 0.878 0.057 0.0023 0.0012 2.5E-4 6.6E-4 2.1E-4 2.1E-4
718.376 103.671 0.880 2.8E-4 0.878 0.055 0.0023 0.0013 2.6E-4 6.7E-4 1.8E-4 2.5E-4
739.426 103.675 0.879 4.0E-4 0.877 0.054 0.0024 0.0014 2.7E-4 6.5E-4 1.9E-4 1.9E-4
761.093 103.680 0.878 2.4E-4 0.877 0.052 0.0023 0.0016 2.2E-4 6.3E-4 2.1E-4 1.5E-4
783.394 103.685 0.878 2.7E-4 0.876 0.051 0.0023 0.0016 2.2E-4 6.5E-4 2.1E-4 1.7E-4
806.349 103.690 0.877 4.4E-4 0.876 0.049 0.0023 0.0017 2.5E-4 6.3E-4 1.9E-4 1.6E-4
829.977 103.695 0.876 2.8E-4 0.875 0.048 0.0025 0.0017 3.0E-4 6.0E-4 1.8E-4 1.7E-4
854.297 103.699 0.876 5.6E-4 0.875 0.047 0.0024 0.0017 3.1E-4 6.7E-4 2.0E-4 1.9E-4
879.330 103.704 0.875 4.5E-4 0.874 0.046 0.0024 0.0018 1.9E-4 5.8E-4 1.8E-4 1.5E-4
905.097 103.708 0.875 3.4E-4 0.874 0.045 0.0024 0.0019 2.4E-4 5.7E-4 1.8E-4 1.9E-4
931.618 103.713 0.874 4.2E-4 0.873 0.044 0.0025 0.0019 2.4E-4 5.2E-4 1.6E-4 2.0E-4
958.917 103.717 0.874 3.6E-4 0.873 0.043 0.0025 0.0020 2.7E-4 5.4E-4 1.8E-4 1.7E-4
987.015 103.721 0.873 3.2E-4 0.872 0.042 0.0024 0.0021 2.3E-4 5.9E-4 2.0E-4 1.8E-4
1015.937 103.725 0.873 5.0E-4 0.872 0.041 0.0024 0.0022 1.9E-4 5.9E-4 1.9E-4 2.1E-4
1045.706 103.730 0.872 6.6E-4 0.871 0.041 0.0024 0.0022 2.5E-4 6.1E-4 2.1E-4 2.0E-4
1076.347 103.734 0.872 3.2E-4 0.871 0.040 0.0023 0.0022 2.5E-4 6.0E-4 2.2E-4 2.1E-4
1107.887 103.738 0.871 3.8E-4 0.871 0.039 0.0024 0.0023 2.5E-4 5.9E-4 2.3E-4 1.9E-4
1140.350 103.742 0.871 5.4E-4 0.870 0.039 0.0024 0.0022 2.7E-4 6.5E-4 1.9E-4 2.0E-4
1173.765 103.745 0.871 6.8E-4 0.870 0.038 0.0023 0.0023 2.7E-4 6.1E-4 2.2E-4 2.2E-4
1208.159 103.749 0.870 4.3E-4 0.869 0.038 0.0022 0.0023 3.2E-4 5.9E-4 2.3E-4 2.3E-4
1243.561 103.753 0.870 5.8E-4 0.869 0.038 0.0023 0.0023 3.2E-4 5.4E-4 2.2E-4 2.4E-4
1280.000 103.757 0.869 3.7E-4 0.868 0.037 0.0023 0.0023 3.1E-4 5.6E-4 2.1E-4 2.1E-4
1317.507 103.760 0.868 4.5E-4 0.868 0.037 0.0023 0.0024 3.0E-4 5.8E-4 2.7E-4 3.5E-4
1356.113 103.764 0.868 4.8E-4 0.867 0.037 0.0023 0.0024 2.6E-4 4.8E-4 2.6E-4 2.6E-4
1395.850 103.767 0.868 4.3E-4 0.867 0.036 0.0023 0.0023 2.4E-4 4.9E-4 2.4E-4 2.3E-4
1436.751 103.770 0.867 4.5E-4 0.866 0.036 0.0023 0.0023 2.8E-4 6.0E-4 2.3E-4 2.5E-4
1478.851 103.774 0.867 6.0E-4 0.866 0.036 0.0023 0.0024 2.9E-4 5.8E-4 2.5E-4 2.1E-4
1522.185 103.777 0.866 5.6E-4 0.865 0.036 0.0024 0.0024 3.0E-4 5.8E-4 2.4E-4 2.4E-4
1566.789 103.780 0.866 5.3E-4 0.865 0.036 0.0024 0.0023 2.9E-4 5.2E-4 2.5E-4 2.5E-4
1612.699 103.783 0.865 4.5E-4 0.864 0.035 0.0024 0.0023 2.7E-4 5.2E-4 2.4E-4 2.3E-4
1659.955 103.786 0.865 4.4E-4 0.864 0.035 0.0025 0.0023 2.8E-4 5.0E-4 2.4E-4 2.3E-4
1708.595 103.789 0.864 4.4E-4 0.864 0.035 0.0024 0.0023 2.7E-4 4.9E-4 2.4E-4 2.2E-4
1758.661 103.792 0.864 4.9E-4 0.863 0.035 0.0024 0.0024 2.7E-4 4.4E-4 2.5E-4 2.2E-4
1810.193 103.794 0.863 4.5E-4 0.863 0.035 0.0024 0.0023 2.5E-4 4.5E-4 2.7E-4 2.5E-4
1863.236 103.797 0.863 3.8E-4 0.862 0.035 0.0024 0.0023 2.7E-4 4.7E-4 2.9E-4 2.7E-4
1917.833 103.800 0.863 5.3E-4 0.862 0.035 0.0023 0.0022 2.9E-4 4.0E-4 2.7E-4 2.7E-4
1974.030 103.802 0.862 4.5E-4 0.861 0.035 0.0023 0.0022 4.0E-4 4.0E-4 2.3E-4 2.3E-4
2031.873 103.804 0.862 4.7E-4 0.861 0.035 0.0024 0.0022 3.3E-4 4.1E-4 2.9E-4 2.1E-4
2091.412 103.806 0.861 4.6E-4 0.861 0.035 0.0023 0.0021 3.4E-4 4.0E-4 2.8E-4 2.0E-4
2152.695 103.809 0.861 7.2E-4 0.860 0.035 0.0023 0.0021 3.2E-4 4.3E-4 2.5E-4 1.9E-4
2215.774 103.811 0.860 5.2E-4 0.860 0.035 0.0024 0.0020 3.1E-4 3.7E-4 2.4E-4 1.8E-4
2280.701 103.813 0.860 5.2E-4 0.859 0.035 0.0024 0.0020 2.8E-4 4.0E-4 2.4E-4 1.7E-4
2347.530 103.814 0.860 8.6E-4 0.859 0.035 0.0024 0.0019 2.9E-4 3.5E-4 2.5E-4 1.5E-4
2416.318 103.816 0.860 5.8E-4 0.859 0.034 0.0025 0.0020 3.0E-4 3.4E-4 2.3E-4 1.7E-4
