* Distortion data saved by REW V5.20.13
* Dated: Sep 29, 2023 7:39:28 PM
* Source: ASIO ASIO Lynx, Aurora(n) Record 26
* Format: 512k Log Swept Sine, 1 sweep at -6.0 dBFS with no timing reference
* Measurement: tegeler -6dbfs 九月 30
* Frequency Step: 24 ppo
* Freq (Hz) Fundamental (dB) THD (%) Noise (%) H2 (%) H3 (%) H4 (%) H5 (%) H6 (%) H7 (%) H8 (%) H9 (%)
20.000 104.529 44.9 3.5E-5 2.18 41.0 2.19 15.2 1.71 8.43 1.36 4.68
20.586 104.762 44.0 3.4E-5 2.20 40.2 2.26 14.6 1.75 8.17 1.36 4.46
21.189 104.993 43.0 3.4E-5 2.22 39.4 2.32 14.1 1.78 7.91 1.36 4.24
21.810 105.221 41.9 3.3E-5 2.23 38.6 2.37 13.5 1.80 7.64 1.35 4.01
22.449 105.446 40.9 3.3E-5 2.25 37.7 2.42 12.9 1.81 7.35 1.33 3.79
23.107 105.668 39.8 3.2E-5 2.26 36.8 2.46 12.3 1.81 7.06 1.30 3.56
23.784 105.887 38.7 3.1E-5 2.27 35.8 2.49 11.7 1.79 6.75 1.27 3.34
24.481 106.102 37.5 3.0E-5 2.27 34.9 2.51 11.1 1.77 6.44 1.22 3.12
25.198 106.313 36.3 3.0E-5 2.28 33.8 2.52 10.6 1.73 6.11 1.18 2.91
25.937 106.520 35.1 2.9E-5 2.28 32.8 2.51 10.00 1.68 5.77 1.12 2.71
26.697 106.723 33.8 2.8E-5 2.27 31.7 2.50 9.45 1.62 5.42 1.06 2.51
27.479 106.921 32.5 2.8E-5 2.27 30.5 2.47 8.91 1.55 5.07 0.998 2.32
28.284 107.114 31.2 2.9E-5 2.26 29.3 2.43 8.40 1.47 4.71 0.930 2.15
29.113 107.301 29.8 2.8E-5 2.25 28.1 2.37 7.90 1.38 4.34 0.858 1.98
29.966 107.482 28.4 2.8E-5 2.24 26.8 2.30 7.43 1.29 3.97 0.785 1.82
30.844 107.656 27.0 4.0E-5 2.22 25.5 2.22 6.99 1.19 3.60 0.710 1.66
31.748 107.822 25.5 3.9E-5 2.21 24.2 2.12 6.57 1.10 3.23 0.636 1.51
32.678 107.980 24.0 3.9E-5 2.20 22.8 2.01 6.17 1.000 2.87 0.564 1.37
33.636 108.129 22.5 3.8E-5 2.19 21.3 1.89 5.79 0.907 2.53 0.494 1.24
34.621 108.268 21.0 3.3E-5 2.17 19.9 1.75 5.42 0.818 2.20 0.428 1.10
35.636 108.396 19.4 3.3E-5 2.16 18.4 1.61 5.06 0.732 1.89 0.364 0.971
36.680 108.512 17.8 3.3E-5 2.15 16.8 1.46 4.70 0.650 1.61 0.305 0.838
37.755 108.615 16.2 3.3E-5 2.14 15.3 1.30 4.32 0.572 1.36 0.251 0.706
38.861 108.704 14.6 3.2E-5 2.13 13.8 1.15 3.94 0.498 1.15 0.203 0.576
40.000 108.780 13.0 4.5E-5 2.11 12.2 0.995 3.55 0.430 0.977 0.163 0.454
41.172 108.843 11.5 4.5E-5 2.09 10.8 0.849 3.15 0.367 0.841 0.130 0.343
42.379 108.895 10.1 4.4E-5 2.07 9.43 0.715 2.77 0.309 0.736 0.105 0.246
43.620 108.938 8.82 5.5E-5 2.05 8.18 0.595 2.40 0.259 0.655 0.087 0.164
44.898 108.973 7.67 5.5E-5 2.02 7.07 0.493 2.05 0.216 0.590 0.074 0.100
46.214 109.002 6.68 1.3E-4 2.00 6.09 0.406 1.73 0.178 0.532 0.063 0.058
47.568 109.026 5.84 1.3E-4 1.98 5.26 0.335 1.45 0.146 0.476 0.054 0.040
48.962 109.047 5.13 2.6E-4 1.96 4.56 0.278 1.20 0.119 0.420 0.046 0.040
50.397 109.065 4.56 2.6E-4 1.95 3.98 0.231 0.982 0.097 0.366 0.040 0.045
51.874 109.081 4.09 1.8E-4 1.93 3.50 0.194 0.798 0.078 0.314 0.033 0.049
53.394 109.096 3.73 1.8E-4 1.92 3.11 0.166 0.645 0.062 0.266 0.028 0.048
54.958 109.109 3.44 5.7E-5 1.91 2.80 0.144 0.519 0.049 0.222 0.023 0.045
56.569 109.121 3.21 5.7E-5 1.90 2.55 0.127 0.419 0.039 0.185 0.019 0.040
58.226 109.133 3.03 4.4E-5 1.89 2.34 0.115 0.338 0.031 0.153 0.016 0.034
59.932 109.143 2.89 4.3E-5 1.88 2.17 0.104 0.273 0.025 0.126 0.013 0.028
61.688 109.154 2.78 5.0E-5 1.88 2.03 0.096 0.222 0.021 0.104 0.010 0.023
63.496 109.164 2.68 4.3E-5 1.88 1.90 0.090 0.181 0.017 0.086 0.0084 0.019
65.357 109.174 2.61 4.3E-5 1.87 1.80 0.085 0.150 0.014 0.071 0.0069 0.015
67.272 109.184 2.54 3.6E-5 1.87 1.71 0.082 0.125 0.011 0.060 0.0058 0.012
69.243 109.194 2.48 4.9E-5 1.87 1.63 0.078 0.106 0.0090 0.050 0.0050 0.0098
71.272 109.203 2.43 4.9E-5 1.87 1.55 0.075 0.091 0.0074 0.043 0.0043 0.0080
73.360 109.213 2.39 4.8E-5 1.87 1.49 0.071 0.079 0.0066 0.037 0.0037 0.0064
75.510 109.222 2.35 6.8E-5 1.86 1.42 0.068 0.069 0.0060 0.032 0.0032 0.0055
77.723 109.231 2.31 7.3E-5 1.86 1.37 0.065 0.060 0.0052 0.029 0.0030 0.0048
80.000 109.241 2.28 7.3E-5 1.86 1.31 0.062 0.054 0.0045 0.025 0.0027 0.0041
82.344 109.250 2.25 7.7E-5 1.86 1.26 0.060 0.049 0.0035 0.022 0.0024 0.0038
84.757 109.259 2.22 7.6E-5 1.86 1.21 0.057 0.045 0.0027 0.020 0.0022 0.0035
87.241 109.268 2.19 7.8E-5 1.86 1.16 0.055 0.042 0.0025 0.018 0.0018 0.0031
89.797 109.277 2.17 7.0E-5 1.86 1.12 0.054 0.039 0.0025 0.017 0.0016 0.0030
92.428 109.285 2.15 4.7E-5 1.86 1.07 0.052 0.036 0.0025 0.016 0.0016 0.0030
95.137 109.294 2.12 4.7E-5 1.86 1.03 0.050 0.035 0.0026 0.014 0.0015 0.0030
97.924 109.303 2.10 6.7E-5 1.85 0.989 0.047 0.033 0.0027 0.013 0.0015 0.0030
100.794 109.311 2.08 9.5E-5 1.85 0.950 0.045 0.032 0.0028 0.012 0.0014 0.0032
103.747 109.320 2.06 8.5E-5 1.85 0.913 0.043 0.031 0.0025 0.011 0.0014 0.0030
106.787 109.328 2.05 4.7E-5 1.85 0.877 0.042 0.030 0.0022 0.010 0.0014 0.0030
109.916 109.336 2.03 7.8E-5 1.85 0.842 0.040 0.029 0.0023 0.0097 0.0012 0.0029
113.137 109.344 2.02 1.0E-4 1.85 0.809 0.039 0.029 0.0021 0.0087 0.0011 0.0027
116.452 109.352 2.00 8.9E-5 1.84 0.777 0.037 0.028 0.0019 0.0079 0.0010 0.0025
119.865 109.360 1.99 1.1E-4 1.84 0.746 0.036 0.028 0.0018 0.0072 7.9E-4 0.0023
123.377 109.368 1.98 6.9E-5 1.84 0.717 0.035 0.028 0.0019 0.0068 7.9E-4 0.0020
126.992 109.376 1.96 6.2E-5 1.84 0.688 0.034 0.027 0.0020 0.0065 9.1E-4 0.0019
130.713 109.383 1.95 5.7E-5 1.84 0.661 0.033 0.027 0.0021 0.0059 9.6E-4 0.0019
134.543 109.391 1.94 5.3E-5 1.83 0.635 0.031 0.028 0.0020 0.0054 9.0E-4 0.0017
138.486 109.398 1.93 1.0E-4 1.83 0.610 0.030 0.028 0.0019 0.0051 0.0010 0.0014
142.544 109.406 1.92 6.5E-5 1.83 0.587 0.030 0.027 0.0020 0.0049 0.0012 0.0012
146.721 109.413 1.92 2.2E-4 1.83 0.565 0.029 0.027 0.0019 0.0047 9.5E-4 0.0012
151.020 109.420 1.91 3.3E-4 1.83 0.544 0.029 0.026 0.0018 0.0044 7.7E-4 0.0012
155.445 109.427 1.90 8.3E-5 1.83 0.523 0.028 0.026 0.0017 0.0043 6.0E-4 0.0011
160.000 109.434 1.90 1.2E-4 1.83 0.505 0.027 0.025 0.0018 0.0043 3.8E-4 0.0010
164.688 109.441 1.89 1.0E-4 1.83 0.486 0.027 0.025 0.0018 0.0041 2.8E-4 9.6E-4
169.514 109.448 1.88 7.1E-5 1.83 0.469 0.026 0.024 0.0018 0.0039 2.6E-4 9.1E-4
174.481 109.454 1.88 1.1E-4 1.82 0.452 0.025 0.024 0.0019 0.0036 2.6E-4 0.0010
179.594 109.461 1.87 8.6E-5 1.82 0.436 0.024 0.023 0.0019 0.0033 2.2E-4 0.0011
184.856 109.468 1.87 7.7E-5 1.82 0.421 0.023 0.023 0.0018 0.0031 2.6E-4 0.0011
190.273 109.474 1.87 7.9E-5 1.82 0.407 0.023 0.022 0.0018 0.0029 3.3E-4 9.3E-4
195.849 109.481 1.86 1.4E-4 1.82 0.393 0.022 0.022 0.0016 0.0025 2.0E-4 8.7E-4
201.587 109.487 1.86 1.0E-4 1.82 0.380 0.022 0.021 0.0016 0.0024 1.5E-4 6.1E-4
207.494 109.493 1.86 1.0E-4 1.82 0.367 0.021 0.021 0.0015 0.0023 1.8E-4 5.5E-4
213.574 109.499 1.85 9.1E-5 1.82 0.356 0.021 0.020 0.0015 0.0022 2.2E-4 5.0E-4
219.833 109.506 1.85 1.1E-4 1.82 0.344 0.021 0.020 0.0015 0.0019 2.7E-4 4.6E-4
226.274 109.512 1.85 1.5E-4 1.82 0.333 0.020 0.019 0.0014 0.0017 3.0E-4 4.3E-4
232.905 109.518 1.84 7.7E-5 1.82 0.323 0.020 0.018 0.0013 0.0016 2.3E-4 4.6E-4
239.729 109.524 1.84 9.5E-5 1.81 0.313 0.019 0.018 0.0013 0.0016 2.4E-4 4.9E-4
246.754 109.530 1.84 2.0E-4 1.81 0.303 0.019 0.017 0.0012 0.0014 2.4E-4 5.7E-4
253.984 109.536 1.84 1.1E-4 1.81 0.294 0.019 0.017 0.0010 0.0012 2.3E-4 6.6E-4
261.426 109.542 1.83 1.1E-4 1.81 0.285 0.018 0.016 0.0010 0.0011 1.8E-4 6.2E-4
269.087 109.547 1.83 1.2E-4 1.81 0.276 0.018 0.016 8.7E-4 0.0010 1.6E-4 5.7E-4
276.972 109.553 1.83 1.6E-4 1.81 0.268 0.018 0.015 7.4E-4 8.8E-4 1.7E-4 5.6E-4
285.088 109.559 1.83 1.4E-4 1.81 0.261 0.018 0.015 7.1E-4 7.5E-4 1.7E-4 4.9E-4
293.441 109.565 1.82 7.5E-5 1.81 0.253 0.017 0.014 6.4E-4 6.6E-4 1.9E-4 4.6E-4
302.040 109.570 1.82 1.5E-4 1.80 0.246 0.017 0.014 6.4E-4 5.9E-4 2.2E-4 4.0E-4
310.890 109.576 1.82 9.4E-5 1.80 0.239 0.017 0.013 6.0E-4 5.3E-4 2.0E-4 4.8E-4
320.000 109.581 1.82 1.1E-4 1.80 0.233 0.017 0.012 6.5E-4 5.0E-4 2.3E-4 4.0E-4
329.377 109.587 1.82 1.3E-4 1.80 0.226 0.017 0.012 6.6E-4 4.8E-4 1.9E-4 3.5E-4
339.028 109.592 1.81 1.1E-4 1.80 0.220 0.017 0.012 6.6E-4 3.6E-4 2.1E-4 3.8E-4
348.962 109.598 1.81 1.4E-4 1.80 0.215 0.017 0.011 6.4E-4 2.8E-4 1.5E-4 4.0E-4
359.188 109.603 1.81 2.0E-4 1.80 0.209 0.017 0.011 6.4E-4 2.9E-4 1.5E-4 3.6E-4
369.713 109.608 1.81 1.9E-4 1.80 0.204 0.017 0.010 5.5E-4 3.2E-4 1.2E-4 2.9E-4
380.546 109.614 1.81 1.2E-4 1.80 0.199 0.016 0.0100 4.4E-4 3.7E-4 1.1E-4 2.0E-4
391.697 109.619 1.81 1.2E-4 1.80 0.194 0.016 0.0096 4.0E-4 3.6E-4 1.5E-4 1.3E-4
403.175 109.624 1.81 1.1E-4 1.80 0.189 0.016 0.0091 3.6E-4 2.6E-4 1.3E-4 1.2E-4
414.989 109.629 1.80 1.3E-4 1.80 0.185 0.016 0.0086 3.2E-4 2.8E-4 1.3E-4 1.5E-4
427.149 109.634 1.80 8.5E-5 1.79 0.181 0.016 0.0082 3.2E-4 2.6E-4 1.5E-4 2.2E-4
439.665 109.639 1.80 1.1E-4 1.79 0.176 0.016 0.0078 2.9E-4 2.3E-4 1.6E-4 2.1E-4
452.548 109.644 1.80 4.9E-4 1.79 0.173 0.016 0.0074 1.9E-4 2.5E-4 1.7E-4 1.4E-4
465.809 109.649 1.80 2.6E-4 1.79 0.169 0.016 0.0071 1.5E-4 2.8E-4 1.5E-4 1.9E-4
479.458 109.654 1.80 1.1E-4 1.79 0.165 0.016 0.0067 1.5E-4 3.2E-4 1.7E-4 2.0E-4
493.507 109.659 1.80 1.6E-4 1.79 0.162 0.016 0.0064 1.5E-4 3.0E-4 2.0E-4 1.8E-4
507.968 109.664 1.80 2.0E-4 1.79 0.159 0.016 0.0060 1.6E-4 2.0E-4 2.4E-4 1.4E-4
522.853 109.668 1.80 1.4E-4 1.79 0.156 0.016 0.0056 1.7E-4 2.4E-4 2.0E-4 1.1E-4
538.174 109.673 1.79 1.7E-4 1.79 0.153 0.016 0.0053 2.1E-4 2.8E-4 2.0E-4 9.5E-5
553.943 109.678 1.79 2.1E-4 1.79 0.150 0.016 0.0051 1.5E-4 3.3E-4 1.8E-4 1.1E-4
570.175 109.682 1.79 1.6E-4 1.79 0.147 0.016 0.0049 1.5E-4 3.1E-4 1.6E-4 8.8E-5
586.883 109.687 1.79 1.3E-4 1.79 0.145 0.016 0.0046 1.2E-4 2.9E-4 1.4E-4 1.1E-4
604.080 109.692 1.79 1.6E-4 1.79 0.142 0.016 0.0043 1.3E-4 3.3E-4 1.7E-4 1.4E-4
621.780 109.696 1.79 2.0E-4 1.78 0.140 0.015 0.0041 1.3E-4 3.7E-4 1.5E-4 1.6E-4
640.000 109.701 1.79 1.7E-4 1.78 0.138 0.015 0.0040 1.3E-4 3.9E-4 1.4E-4 1.6E-4
658.753 109.705 1.79 1.2E-4 1.78 0.136 0.015 0.0037 1.2E-4 3.9E-4 1.4E-4 1.5E-4
678.056 109.709 1.79 1.3E-4 1.78 0.134 0.015 0.0036 1.2E-4 4.1E-4 1.4E-4 1.5E-4
697.925 109.714 1.79 2.4E-4 1.78 0.132 0.015 0.0034 1.1E-4 4.5E-4 1.7E-4 1.1E-4
718.376 109.718 1.79 1.6E-4 1.78 0.130 0.015 0.0032 9.6E-5 4.7E-4 1.5E-4 1.4E-4
739.426 109.722 1.78 2.0E-4 1.78 0.128 0.015 0.0030 1.0E-4 5.1E-4 1.8E-4 1.7E-4
761.093 109.727 1.78 2.0E-4 1.78 0.127 0.015 0.0030 1.2E-4 5.7E-4 1.7E-4 1.5E-4
783.394 109.731 1.78 2.0E-4 1.78 0.125 0.015 0.0028 1.3E-4 5.7E-4 1.9E-4 1.3E-4
806.349 109.735 1.78 2.2E-4 1.78 0.124 0.015 0.0027 1.1E-4 5.5E-4 1.8E-4 1.3E-4
829.977 109.739 1.78 1.9E-4 1.78 0.123 0.015 0.0025 1.2E-4 6.0E-4 2.3E-4 1.4E-4
854.297 109.743 1.78 2.5E-4 1.78 0.121 0.015 0.0025 1.2E-4 6.4E-4 2.4E-4 1.4E-4
879.330 109.747 1.78 1.4E-4 1.78 0.120 0.015 0.0024 1.4E-4 6.1E-4 2.7E-4 1.2E-4
905.097 109.751 1.78 1.9E-4 1.77 0.119 0.015 0.0023 1.4E-4 5.9E-4 2.6E-4 1.1E-4
931.618 109.755 1.78 1.9E-4 1.77 0.118 0.015 0.0022 1.3E-4 5.6E-4 2.4E-4 1.1E-4
958.917 109.758 1.78 1.8E-4 1.77 0.117 0.015 0.0021 1.1E-4 6.0E-4 2.2E-4 1.1E-4
987.015 109.762 1.78 1.8E-4 1.77 0.116 0.015 0.0021 1.1E-4 5.7E-4 2.1E-4 1.0E-4
1015.937 109.766 1.78 1.8E-4 1.77 0.115 0.015 0.0019 1.4E-4 5.6E-4 2.0E-4 1.1E-4
1045.706 109.769 1.77 3.1E-4 1.77 0.114 0.015 0.0018 1.2E-4 5.2E-4 2.3E-4 1.2E-4
1076.347 109.773 1.77 2.3E-4 1.77 0.114 0.015 0.0017 1.2E-4 5.5E-4 2.1E-4 1.1E-4
1107.887 109.776 1.77 1.8E-4 1.77 0.113 0.015 0.0016 1.2E-4 5.5E-4 2.0E-4 1.1E-4
1140.350 109.780 1.77 2.4E-4 1.77 0.112 0.015 0.0016 1.2E-4 5.2E-4 2.0E-4 1.2E-4
1173.765 109.783 1.77 2.5E-4 1.77 0.112 0.015 0.0015 1.4E-4 5.3E-4 2.0E-4 1.1E-4
1208.159 109.787 1.77 2.3E-4 1.77 0.111 0.015 0.0014 1.3E-4 5.2E-4 2.0E-4 1.1E-4
1243.561 109.790 1.77 2.8E-4 1.77 0.111 0.015 0.0013 1.3E-4 5.0E-4 2.1E-4 1.1E-4
1280.000 109.793 1.77 2.3E-4 1.77 0.110 0.015 0.0012 1.3E-4 5.1E-4 1.8E-4 1.1E-4
1317.507 109.796 1.77 2.1E-4 1.76 0.109 0.015 0.0012 1.2E-4 5.1E-4 1.7E-4 1.2E-4
1356.113 109.799 1.77 2.8E-4 1.76 0.109 0.015 0.0011 1.3E-4 4.8E-4 1.9E-4 1.3E-4
1395.850 109.802 1.77 2.2E-4 1.76 0.109 0.015 0.0011 1.5E-4 5.2E-4 2.2E-4 1.5E-4
1436.751 109.805 1.77 2.7E-4 1.76 0.108 0.015 0.0011 1.5E-4 5.3E-4 2.0E-4 1.3E-4
1478.851 109.808 1.77 1.9E-4 1.76 0.108 0.015 1.0E-3 1.4E-4 5.3E-4 2.1E-4 1.1E-4
1522.185 109.811 1.76 2.7E-4 1.76 0.107 0.015 9.6E-4 1.5E-4 5.9E-4 1.9E-4 1.2E-4
1566.789 109.814 1.76 3.2E-4 1.76 0.107 0.015 9.6E-4 1.3E-4 6.1E-4 2.1E-4 1.3E-4
1612.699 109.816 1.76 2.3E-4 1.76 0.107 0.015 9.6E-4 1.3E-4 6.1E-4 2.0E-4 1.2E-4
1659.955 109.819 1.76 2.2E-4 1.76 0.107 0.015 9.6E-4 1.4E-4 5.6E-4 1.9E-4 1.1E-4
1708.595 109.822 1.76 2.9E-4 1.76 0.106 0.015 9.5E-4 1.5E-4 5.5E-4 1.9E-4 1.1E-4
1758.661 109.824 1.76 3.4E-4 1.76 0.106 0.015 9.4E-4 1.6E-4 5.6E-4 1.8E-4 1.3E-4
1810.193 109.826 1.76 3.1E-4 1.76 0.106 0.015 9.3E-4 1.6E-4 5.3E-4 1.9E-4 1.3E-4
1863.236 109.829 1.76 2.4E-4 1.76 0.106 0.015 9.4E-4 1.6E-4 5.3E-4 2.2E-4 1.3E-4
1917.833 109.831 1.76 2.9E-4 1.76 0.106 0.015 9.2E-4 1.5E-4 5.6E-4 2.4E-4 1.2E-4
1974.030 109.833 1.76 2.2E-4 1.75 0.106 0.015 9.0E-4 1.4E-4 5.6E-4 2.1E-4 1.2E-4
2031.873 109.835 1.76 2.5E-4 1.75 0.105 0.015 8.9E-4 1.5E-4 5.6E-4 2.0E-4 1.0E-4
2091.412 109.837 1.76 2.6E-4 1.75 0.105 0.015 9.3E-4 1.5E-4 5.7E-4 2.1E-4 1.2E-4
2152.695 109.839 1.76 3.2E-4 1.75 0.105 0.015 9.3E-4 1.6E-4 5.3E-4 2.1E-4 1.0E-4
2215.774 109.840 1.76 2.7E-4 1.75 0.105 0.015 9.6E-4 1.6E-4 5.1E-4 2.1E-4 1.1E-4
2280.701 109.842 1.75 2.6E-4 1.75 0.105 0.015 9.4E-4 1.7E-4 5.2E-4 1.8E-4 1.0E-4
2347.530 109.844 1.75 3.1E-4 1.75 0.105 0.015 9.6E-4 1.7E-4 5.1E-4 1.7E-4 9.8E-5
2416.318 109.845 1.75 3.0E-4 1.75 0.105 0.015 9.8E-4 1.5E-4 4.7E-4 1.6E-4 8.8E-5
