* Distortion data saved by REW V5.20.13
* Dated: Sep 29, 2023 7:38:39 PM
* Source: ASIO ASIO Lynx, Aurora(n) Record 26
* Format: 512k Log Swept Sine, 1 sweep at 0.0 dBFS with no timing reference
* Measurement: tegeler 0dbfs 九月 30
* Frequency Step: 24 ppo
* Freq (Hz) Fundamental (dB) THD (%) Noise (%) H2 (%) H3 (%) H4 (%) H5 (%) H6 (%) H7 (%) H8 (%) H9 (%)
20.000 105.763 69.1 2.9E-5 6.26 57.0 6.10 31.1 5.88 17.5 4.49 10.8
20.586 106.009 68.3 2.8E-5 6.40 56.5 6.31 30.5 6.04 17.0 4.65 10.5
21.189 106.255 67.5 2.8E-5 6.52 56.0 6.51 29.9 6.18 16.5 4.79 10.3
21.810 106.500 66.6 2.7E-5 6.64 55.4 6.69 29.3 6.31 16.1 4.93 10.0
22.449 106.743 65.8 3.7E-5 6.74 54.9 6.86 28.7 6.42 15.6 5.05 9.80
23.107 106.986 64.9 3.6E-5 6.83 54.3 7.01 28.1 6.51 15.1 5.16 9.56
23.784 107.228 64.1 3.5E-5 6.91 53.7 7.14 27.5 6.59 14.6 5.25 9.33
24.481 107.468 63.2 3.4E-5 6.98 53.0 7.27 26.8 6.65 14.2 5.33 9.11
25.198 107.708 62.3 3.1E-5 7.04 52.4 7.37 26.2 6.70 13.7 5.40 8.89
25.937 107.946 61.3 3.0E-5 7.09 51.7 7.46 25.6 6.73 13.3 5.46 8.68
26.697 108.184 60.4 3.0E-5 7.12 51.0 7.54 24.9 6.75 12.8 5.51 8.47
27.479 108.420 59.4 2.9E-5 7.14 50.3 7.60 24.3 6.76 12.4 5.54 8.26
28.284 108.655 58.4 5.2E-5 7.15 49.6 7.65 23.7 6.75 11.9 5.57 8.06
29.113 108.889 57.4 5.1E-5 7.15 48.9 7.69 23.0 6.74 11.5 5.58 7.86
29.966 109.122 56.4 4.9E-5 7.14 48.1 7.72 22.4 6.71 11.1 5.58 7.66
30.844 109.353 55.4 5.9E-5 7.12 47.3 7.73 21.7 6.68 10.7 5.57 7.46
31.748 109.583 54.3 5.7E-5 7.09 46.5 7.73 21.1 6.63 10.3 5.55 7.25
32.678 109.812 53.3 5.6E-5 7.05 45.7 7.71 20.5 6.58 9.96 5.51 7.04
33.636 110.040 52.2 5.4E-5 6.99 44.8 7.69 19.8 6.52 9.61 5.46 6.83
34.621 110.266 51.1 6.1E-5 6.93 44.0 7.65 19.2 6.45 9.27 5.40 6.61
35.636 110.490 49.9 5.9E-5 6.86 43.1 7.60 18.5 6.37 8.95 5.32 6.37
36.680 110.713 48.8 5.9E-5 6.79 42.1 7.54 17.9 6.28 8.65 5.23 6.13
37.755 110.935 47.6 5.7E-5 6.70 41.2 7.46 17.2 6.18 8.36 5.12 5.88
38.861 111.154 46.4 5.6E-5 6.61 40.2 7.38 16.6 6.07 8.09 4.99 5.61
40.000 111.372 45.1 2.9E-5 6.51 39.2 7.28 15.9 5.96 7.83 4.85 5.34
41.172 111.588 43.9 2.9E-5 6.41 38.2 7.16 15.3 5.83 7.59 4.70 5.05
42.379 111.802 42.6 2.8E-5 6.31 37.2 7.03 14.6 5.68 7.36 4.53 4.75
43.620 112.014 41.3 2.0E-5 6.19 36.1 6.89 13.9 5.52 7.13 4.34 4.44
44.898 112.223 39.9 1.9E-5 6.08 35.0 6.73 13.3 5.35 6.92 4.15 4.13
46.214 112.430 38.5 8.7E-5 5.97 33.8 6.55 12.6 5.16 6.70 3.94 3.81
47.568 112.634 37.1 8.5E-5 5.85 32.6 6.36 11.9 4.95 6.48 3.72 3.50
48.962 112.835 35.6 1.4E-4 5.73 31.4 6.15 11.3 4.71 6.25 3.49 3.19
50.397 113.032 34.1 1.4E-4 5.62 30.2 5.91 10.6 4.45 6.01 3.26 2.90
51.874 113.226 32.6 8.3E-5 5.50 28.9 5.66 9.89 4.17 5.74 3.03 2.63
53.394 113.416 31.0 8.1E-5 5.39 27.6 5.39 9.20 3.87 5.45 2.79 2.39
54.958 113.602 29.3 1.9E-5 5.28 26.2 5.09 8.51 3.54 5.13 2.55 2.17
56.569 113.782 27.7 1.9E-5 5.18 24.7 4.77 7.82 3.19 4.77 2.30 1.97
58.226 113.956 25.9 2.3E-5 5.08 23.3 4.43 7.15 2.82 4.37 2.04 1.80
59.932 114.123 24.1 2.2E-5 4.98 21.7 4.06 6.48 2.45 3.93 1.77 1.63
61.688 114.281 22.3 3.7E-5 4.88 20.2 3.68 5.83 2.07 3.45 1.49 1.45
63.496 114.429 20.5 2.8E-5 4.78 18.5 3.27 5.22 1.72 2.94 1.21 1.26
65.357 114.563 18.6 2.8E-5 4.67 16.9 2.87 4.65 1.40 2.43 0.931 1.07
67.272 114.683 16.9 2.5E-5 4.57 15.3 2.47 4.16 1.14 1.96 0.691 0.885
69.243 114.789 15.2 5.1E-5 4.45 13.7 2.10 3.75 0.933 1.54 0.503 0.725
71.272 114.880 13.6 5.0E-5 4.35 12.2 1.76 3.41 0.786 1.20 0.364 0.591
73.360 114.958 12.2 4.3E-5 4.24 10.8 1.47 3.12 0.679 0.928 0.264 0.476
75.510 115.022 10.8 2.5E-5 4.14 9.46 1.22 2.86 0.596 0.720 0.192 0.373
77.723 115.075 9.62 5.6E-5 4.05 8.22 0.998 2.60 0.528 0.567 0.138 0.280
80.000 115.118 8.51 5.5E-5 3.97 7.07 0.809 2.34 0.465 0.457 0.096 0.199
82.344 115.152 7.52 3.8E-5 3.90 6.03 0.647 2.07 0.406 0.381 0.065 0.132
84.757 115.181 6.67 3.3E-5 3.83 5.11 0.511 1.81 0.352 0.328 0.043 0.080
87.241 115.204 5.97 3.2E-5 3.77 4.32 0.399 1.56 0.304 0.289 0.030 0.043
89.797 115.224 5.40 3.6E-5 3.72 3.65 0.309 1.33 0.261 0.257 0.023 0.024
92.428 115.241 4.96 6.5E-5 3.68 3.10 0.238 1.12 0.224 0.228 0.021 0.026
95.137 115.256 4.62 6.5E-5 3.64 2.67 0.181 0.940 0.193 0.200 0.022 0.036
97.924 115.270 4.37 7.3E-5 3.61 2.32 0.138 0.779 0.166 0.171 0.024 0.044
100.794 115.282 4.19 9.9E-5 3.59 2.06 0.104 0.641 0.144 0.143 0.026 0.048
103.747 115.294 4.06 7.3E-5 3.57 1.85 0.080 0.525 0.126 0.117 0.027 0.047
106.787 115.305 3.97 2.8E-5 3.56 1.70 0.064 0.429 0.112 0.094 0.028 0.043
109.916 115.316 3.90 4.6E-5 3.54 1.58 0.053 0.353 0.102 0.076 0.029 0.038
113.137 115.327 3.85 4.5E-5 3.53 1.49 0.046 0.293 0.095 0.062 0.030 0.032
116.452 115.338 3.81 4.0E-5 3.53 1.42 0.042 0.246 0.089 0.053 0.030 0.027
119.865 115.348 3.78 3.5E-5 3.52 1.37 0.039 0.210 0.086 0.049 0.031 0.022
123.377 115.358 3.76 5.3E-5 3.52 1.32 0.037 0.183 0.084 0.047 0.031 0.019
126.992 115.368 3.74 5.3E-5 3.51 1.27 0.035 0.162 0.082 0.047 0.031 0.017
130.713 115.378 3.72 5.6E-5 3.51 1.24 0.032 0.147 0.081 0.048 0.032 0.016
134.543 115.387 3.71 4.7E-5 3.51 1.20 0.030 0.134 0.080 0.049 0.032 0.015
138.486 115.397 3.70 3.9E-5 3.51 1.17 0.028 0.125 0.079 0.050 0.032 0.014
142.544 115.405 3.69 5.0E-5 3.50 1.13 0.025 0.117 0.079 0.051 0.032 0.014
146.721 115.414 3.68 1.2E-4 3.50 1.10 0.023 0.112 0.078 0.052 0.032 0.014
151.020 115.423 3.67 1.8E-4 3.50 1.08 0.021 0.107 0.078 0.054 0.032 0.015
155.445 115.431 3.66 5.6E-5 3.50 1.05 0.019 0.104 0.077 0.054 0.032 0.015
160.000 115.439 3.65 4.1E-5 3.50 1.02 0.017 0.101 0.077 0.055 0.032 0.015
164.688 115.447 3.64 4.0E-5 3.50 0.995 0.016 0.098 0.076 0.056 0.032 0.015
169.514 115.455 3.63 6.1E-5 3.50 0.970 0.014 0.097 0.076 0.057 0.032 0.016
174.481 115.463 3.62 4.2E-5 3.49 0.944 0.013 0.096 0.075 0.057 0.032 0.016
179.594 115.470 3.62 3.9E-5 3.49 0.919 0.012 0.095 0.075 0.058 0.032 0.016
184.856 115.478 3.61 4.7E-5 3.49 0.894 0.010 0.094 0.075 0.058 0.032 0.016
190.273 115.485 3.60 3.2E-5 3.49 0.870 0.0095 0.093 0.075 0.058 0.032 0.016
195.849 115.492 3.59 4.3E-5 3.49 0.847 0.0087 0.092 0.075 0.058 0.032 0.016
201.587 115.499 3.58 7.7E-5 3.49 0.824 0.0083 0.092 0.075 0.058 0.032 0.016
207.494 115.505 3.58 3.1E-5 3.48 0.801 0.0085 0.091 0.075 0.058 0.032 0.016
213.574 115.512 3.57 5.2E-5 3.48 0.779 0.0090 0.090 0.075 0.058 0.031 0.016
219.833 115.518 3.56 4.7E-5 3.48 0.757 0.0097 0.089 0.075 0.057 0.031 0.016
226.274 115.525 3.56 7.2E-5 3.48 0.736 0.011 0.088 0.075 0.057 0.031 0.016
232.905 115.531 3.55 6.2E-5 3.48 0.715 0.013 0.088 0.075 0.057 0.031 0.016
239.729 115.537 3.55 5.8E-5 3.47 0.694 0.014 0.087 0.075 0.056 0.031 0.016
246.754 115.543 3.54 1.1E-4 3.47 0.675 0.015 0.086 0.075 0.056 0.031 0.015
253.984 115.548 3.53 6.7E-5 3.47 0.656 0.016 0.085 0.075 0.055 0.031 0.015
261.426 115.554 3.53 4.7E-5 3.47 0.637 0.017 0.084 0.075 0.055 0.031 0.015
269.087 115.560 3.53 4.8E-5 3.47 0.619 0.018 0.084 0.075 0.055 0.031 0.015
276.972 115.565 3.52 7.0E-5 3.47 0.602 0.019 0.083 0.075 0.054 0.031 0.015
285.088 115.570 3.52 6.3E-5 3.46 0.585 0.021 0.083 0.075 0.054 0.031 0.015
293.441 115.575 3.51 9.3E-5 3.46 0.569 0.021 0.082 0.074 0.054 0.031 0.015
302.040 115.581 3.51 7.7E-5 3.46 0.553 0.022 0.081 0.074 0.053 0.031 0.015
310.890 115.586 3.50 4.2E-5 3.46 0.539 0.023 0.081 0.074 0.053 0.031 0.015
320.000 115.590 3.50 4.5E-5 3.46 0.524 0.024 0.080 0.074 0.053 0.031 0.015
329.377 115.595 3.49 6.4E-5 3.45 0.510 0.025 0.080 0.074 0.053 0.031 0.015
339.028 115.600 3.49 7.4E-5 3.45 0.496 0.025 0.080 0.074 0.053 0.031 0.015
348.962 115.605 3.49 7.6E-5 3.45 0.484 0.026 0.080 0.074 0.052 0.031 0.015
359.188 115.609 3.48 8.1E-5 3.45 0.471 0.027 0.080 0.074 0.052 0.030 0.015
369.713 115.614 3.48 8.2E-5 3.45 0.459 0.027 0.080 0.074 0.052 0.030 0.015
380.546 115.618 3.48 3.4E-5 3.44 0.448 0.028 0.080 0.074 0.052 0.030 0.015
391.697 115.622 3.47 5.2E-5 3.44 0.437 0.028 0.080 0.074 0.052 0.030 0.015
403.175 115.627 3.47 7.9E-5 3.44 0.427 0.029 0.080 0.074 0.052 0.030 0.015
414.989 115.631 3.47 3.9E-5 3.44 0.417 0.029 0.080 0.074 0.052 0.030 0.015
427.149 115.635 3.46 5.7E-5 3.44 0.408 0.030 0.080 0.074 0.051 0.030 0.015
439.665 115.639 3.46 9.0E-5 3.44 0.399 0.030 0.080 0.074 0.051 0.030 0.015
452.548 115.643 3.46 2.9E-4 3.43 0.390 0.031 0.080 0.074 0.051 0.030 0.015
465.809 115.647 3.46 7.0E-5 3.43 0.382 0.031 0.080 0.074 0.051 0.030 0.015
479.458 115.651 3.45 7.8E-5 3.43 0.375 0.032 0.080 0.074 0.051 0.030 0.015
493.507 115.655 3.45 5.3E-5 3.43 0.367 0.032 0.081 0.074 0.051 0.030 0.015
507.968 115.658 3.45 6.7E-5 3.43 0.360 0.032 0.081 0.074 0.051 0.030 0.015
522.853 115.662 3.45 1.1E-4 3.43 0.354 0.032 0.081 0.073 0.051 0.030 0.015
538.174 115.666 3.45 8.0E-5 3.43 0.348 0.033 0.081 0.073 0.051 0.030 0.015
553.943 115.669 3.44 7.5E-5 3.43 0.342 0.033 0.081 0.073 0.051 0.030 0.015
570.175 115.673 3.44 8.4E-5 3.42 0.336 0.033 0.081 0.073 0.051 0.030 0.015
586.883 115.677 3.44 7.1E-5 3.42 0.331 0.034 0.081 0.073 0.051 0.030 0.015
604.080 115.680 3.44 8.4E-5 3.42 0.326 0.034 0.082 0.073 0.051 0.030 0.015
621.780 115.684 3.44 6.6E-5 3.42 0.321 0.034 0.082 0.073 0.051 0.030 0.015
640.000 115.687 3.44 1.1E-4 3.42 0.316 0.034 0.082 0.073 0.051 0.030 0.015
658.753 115.691 3.44 1.1E-4 3.42 0.312 0.035 0.082 0.073 0.051 0.030 0.015
678.056 115.694 3.43 1.1E-4 3.42 0.308 0.035 0.082 0.073 0.051 0.030 0.015
697.925 115.697 3.43 9.3E-5 3.42 0.304 0.035 0.082 0.073 0.050 0.030 0.015
718.376 115.701 3.43 9.2E-5 3.41 0.300 0.035 0.082 0.073 0.050 0.030 0.015
739.426 115.704 3.43 1.7E-4 3.41 0.297 0.035 0.082 0.073 0.050 0.030 0.015
761.093 115.707 3.43 9.4E-5 3.41 0.294 0.035 0.083 0.073 0.050 0.030 0.015
783.394 115.710 3.43 5.6E-5 3.41 0.290 0.036 0.083 0.073 0.050 0.030 0.015
806.349 115.713 3.42 7.3E-5 3.41 0.287 0.036 0.083 0.073 0.050 0.030 0.015
829.977 115.717 3.42 7.1E-5 3.41 0.284 0.036 0.083 0.073 0.050 0.030 0.015
854.297 115.720 3.42 1.3E-4 3.41 0.282 0.036 0.083 0.073 0.050 0.030 0.015
879.330 115.723 3.42 1.2E-4 3.41 0.279 0.036 0.083 0.073 0.050 0.030 0.015
905.097 115.726 3.42 7.3E-5 3.40 0.277 0.036 0.083 0.073 0.050 0.030 0.015
931.618 115.729 3.42 9.7E-5 3.40 0.275 0.036 0.083 0.073 0.050 0.030 0.015
958.917 115.732 3.42 1.1E-4 3.40 0.272 0.036 0.083 0.073 0.050 0.029 0.015
987.015 115.735 3.41 1.1E-4 3.40 0.270 0.036 0.083 0.073 0.050 0.029 0.015
1015.937 115.737 3.41 8.3E-5 3.40 0.268 0.036 0.083 0.073 0.050 0.030 0.015
1045.706 115.740 3.41 1.7E-4 3.40 0.267 0.037 0.083 0.073 0.050 0.029 0.015
1076.347 115.743 3.41 1.1E-4 3.40 0.265 0.037 0.083 0.073 0.050 0.029 0.015
1107.887 115.746 3.41 1.2E-4 3.40 0.263 0.037 0.083 0.073 0.050 0.029 0.015
1140.350 115.749 3.41 1.2E-4 3.40 0.262 0.037 0.083 0.073 0.050 0.029 0.015
1173.765 115.751 3.41 6.5E-5 3.39 0.260 0.037 0.083 0.073 0.050 0.029 0.015
1208.159 115.754 3.41 1.2E-4 3.39 0.259 0.037 0.083 0.073 0.050 0.029 0.015
1243.561 115.757 3.40 1.7E-4 3.39 0.257 0.037 0.083 0.073 0.050 0.029 0.015
1280.000 115.759 3.40 1.3E-4 3.39 0.256 0.037 0.083 0.073 0.050 0.029 0.015
1317.507 115.762 3.40 1.0E-4 3.39 0.255 0.037 0.083 0.073 0.050 0.029 0.015
1356.113 115.764 3.40 1.5E-4 3.39 0.254 0.037 0.083 0.073 0.050 0.029 0.015
1395.850 115.766 3.40 9.7E-5 3.39 0.253 0.037 0.083 0.073 0.050 0.029 0.015
1436.751 115.769 3.40 8.0E-5 3.39 0.252 0.037 0.083 0.073 0.050 0.029 0.014
1478.851 115.771 3.40 1.2E-4 3.38 0.251 0.037 0.083 0.073 0.050 0.029 0.014
1522.185 115.773 3.39 1.2E-4 3.38 0.250 0.037 0.084 0.073 0.050 0.029 0.014
1566.789 115.776 3.39 1.4E-4 3.38 0.249 0.037 0.084 0.073 0.049 0.029 0.014
1612.699 115.778 3.39 1.4E-4 3.38 0.248 0.037 0.084 0.073 0.049 0.029 0.014
1659.955 115.780 3.39 1.3E-4 3.38 0.247 0.037 0.084 0.073 0.049 0.029 0.014
1708.595 115.782 3.39 1.2E-4 3.38 0.247 0.037 0.084 0.073 0.049 0.028 0.013
1758.661 115.784 3.39 1.2E-4 3.38 0.246 0.037 0.084 0.073 0.049 0.028 0.013
1810.193 115.785 3.39 1.3E-4 3.38 0.245 0.037 0.084 0.073 0.049 0.028 0.013
1863.236 115.787 3.39 1.5E-4 3.37 0.245 0.037 0.084 0.073 0.048 0.027 0.013
1917.833 115.789 3.38 1.4E-4 3.37 0.244 0.037 0.084 0.072 0.048 0.027 0.012
1974.030 115.791 3.38 1.3E-4 3.37 0.244 0.037 0.084 0.072 0.048 0.026 0.012
2031.873 115.792 3.38 1.5E-4 3.37 0.243 0.037 0.084 0.072 0.047 0.026 0.011
2091.412 115.794 3.38 1.3E-4 3.37 0.243 0.037 0.084 0.072 0.046 0.025 0.011
2152.695 115.795 3.38 1.7E-4 3.37 0.242 0.037 0.084 0.071 0.046 0.024 0.0100
2215.774 115.796 3.38 1.6E-4 3.37 0.242 0.037 0.084 0.071 0.045 0.023 0.0093
2280.701 115.797 3.38 1.7E-4 3.37 0.242 0.037 0.083 0.070 0.044 0.022 0.0087
2347.530 115.799 3.38 1.7E-4 3.37 0.242 0.037 0.083 0.069 0.043 0.021 0.0080
2416.318 115.800 3.38 1.4E-4 3.36 0.242 0.037 0.083 0.069 0.041 0.020 0.0075
